# Filename: Nuclei_416_ctrl_010.npz
# Voxel size (nm): (108, 108)
# Area quantity: voxels
# Num nuclei detected: 981
Y           X           AREA       MAJOR_AXIS_LENGTH    MINOR_AXIS_LENGTH
6.84066     1161.83516  182.00000  17.33084             13.69964
16.49785    608.79828   233.00000  20.55448             14.48469
29.05051    625.97475   396.00000  25.82970             19.83588
37.08711    460.28223   287.00000  24.95344             14.71067
47.24324    1160.39189  370.00000  27.23675             17.60003
45.32031    98.53125    256.00000  20.28819             16.14720
68.63801    1699.85520  221.00000  19.79535             14.31867
74.78632    1168.33333  234.00000  23.57778             12.73827
87.08394    1099.36861  274.00000  24.64469             14.18499
109.08527   601.36434   258.00000  22.90546             14.45169
119.10667   1202.99333  150.00000  16.55677             11.59930
126.63529   1060.52157  255.00000  27.62140             12.08422
137.33935   615.66426   277.00000  24.13491             14.80258
140.27143   1164.97500  280.00000  25.62702             14.24515
141.42905   601.72973   296.00000  25.99456             14.58269
151.67054   175.13953   258.00000  29.55551             11.92308
155.44207   1152.48780  328.00000  32.30286             13.32451
159.77852   487.30537   298.00000  24.86180             15.48207
158.93583   1747.63102  187.00000  21.20001             11.36627
170.23602   440.65528   322.00000  26.80069             15.55511
181.03226   1656.82949  217.00000  17.99924             15.45520
183.53419   1705.08120  234.00000  19.94237             15.00165
187.43697   1453.40756  238.00000  22.36560             13.63941
185.81102   1528.82283  254.00000  21.41645             15.18113
205.84807   1082.96685  362.00000  32.37496             14.59299
204.86040   100.81481   351.00000  32.07400             15.95022
204.12000   1811.83200  125.00000  17.76645             9.41612
215.26792   493.58491   265.00000  23.81514             14.34606
215.43275   1190.20760  342.00000  27.71141             16.19455
220.84407   1107.08814  295.00000  30.78220             12.65382
220.72438   861.36042   283.00000  24.63537             14.68284
219.43310   562.83451   284.00000  21.27279             17.38142
232.24235   521.01020   392.00000  29.15749             17.53019
234.07192   1230.24658  292.00000  22.07731             17.70775
235.51119   552.82090   268.00000  19.50718             17.54225
238.06790   1830.07407  162.00000  18.80886             10.96532
248.10127   407.83544   237.00000  25.76061             13.35638
258.42763   178.04934   304.00000  27.69902             14.63807
256.48936   1436.56738  282.00000  23.57646             15.32409
259.80000   1754.03636  220.00000  20.14246             13.95650
275.59032   808.80968   310.00000  26.01194             15.32649
283.72176   459.41047   363.00000  28.02235             16.66567
294.25301   1853.18072  166.00000  21.11903             10.23371
292.57962   1935.69427  157.00000  17.48570             11.50756
302.45185   214.30741   270.00000  23.19025             15.00458
309.47531   815.88272   324.00000  31.06747             13.34685
318.65021   1741.86831  243.00000  23.26504             13.35956
319.88028   1356.09155  284.00000  21.54470             16.82798
320.55814   1099.19934  301.00000  20.98714             18.47059
321.90966   461.36137   321.00000  22.06555             19.10165
323.03625   205.38369   331.00000  31.12281             13.86917
329.60592   905.58998   439.00000  26.21633             23.02922
332.12195   1058.57143  287.00000  25.12605             14.70499
351.43144   954.93645   299.00000  25.13693             15.39866
357.75556   409.17778   315.00000  21.86098             18.46080
366.37719   1375.68421  342.00000  28.66938             15.40321
369.88922   846.72156   334.00000  23.53277             18.28269
382.57682   204.96496   371.00000  25.50912             18.55670
384.27273   1780.13853  231.00000  17.84584             16.58543
382.65000   596.35000   40.00000   11.09276             4.84053
390.10543   992.24601   313.00000  23.65169             17.32570
400.18135   1923.90674  193.00000  17.63866             13.99944
402.91039   576.94982   279.00000  21.55134             16.64132
399.74545   600.23636   55.00000   10.57455             6.69282
406.80712   695.22255   337.00000  22.53940             19.17776
418.40576   1232.68586  382.00000  34.21395             14.44320
413.22148   1003.60738  298.00000  22.73332             17.24513
416.28205   566.10623   273.00000  19.05153             18.43422
428.85000   532.01071   280.00000  27.77140             13.05763
434.91566   698.38153   249.00000  19.43119             16.50223
437.81022   1723.95985  274.00000  24.65750             14.28148
439.85818   906.61455   275.00000  23.25479             15.11337
443.67293   804.30827   266.00000  19.70456             17.51868
447.17073   1762.04065  246.00000  19.86122             16.55044
457.28866   772.72852   291.00000  24.23685             15.40387
461.30204   807.95510   245.00000  25.20109             12.60582
466.62832   1073.51770  226.00000  20.98998             13.81554
474.69841   838.44127   315.00000  33.85943             12.00013
470.08130   1960.80488  123.00000  13.54575             11.69779
477.25523   1882.31799  239.00000  23.74599             12.87579
478.78947   1931.01053  95.00000   13.00762             9.50270
489.72464   17.27899    276.00000  22.58555             15.62467
490.62147   1893.59887  177.00000  20.15463             11.53710
497.59902   651.88753   409.00000  30.52159             18.08632
493.18301   1912.01961  153.00000  17.41950             11.28679
498.37915   1831.90047  211.00000  16.94032             16.00498
500.49143   1879.45143  175.00000  16.47150             13.57516
502.59489   872.74088   274.00000  19.24450             18.46738
503.80982   2011.98160  163.00000  17.54436             11.84062
512.59231   1049.49231  260.00000  27.52601             12.15149
508.26752   1964.04459  157.00000  17.87958             11.28032
517.72687   923.61674   227.00000  20.49664             14.28318
521.20062   1020.75000  324.00000  28.98786             16.43351
515.89899   992.57576   99.00000   12.14037             10.46171
523.39130   506.59783   276.00000  26.06512             13.54886
524.98671   1367.55150  301.00000  25.15217             15.75058
519.71318   1963.03101  129.00000  14.41540             11.44909
521.32061   2023.35115  131.00000  14.93617             11.86098
531.04301   806.12186   279.00000  23.68080             15.48033
531.01449   820.98913   276.00000  24.13514             14.65091
533.60949   889.80657   274.00000  27.61770             12.69540
535.79821   1977.66816  223.00000  17.59623             16.32832
540.69381   456.35831   307.00000  27.03948             14.55920
542.58421   1122.63684  190.00000  20.73059             11.81872
549.77882   903.98754   321.00000  29.58624             13.93465
550.94983   1943.33779  299.00000  26.07854             15.11595
549.83471   967.63636   242.00000  21.46315             14.71223
549.00000   947.67742   31.00000   7.97656              4.95137
557.94306   1464.65836  281.00000  20.32888             18.25771
563.56734   932.35244   349.00000  32.08646             14.22933
562.70956   643.93750   272.00000  23.75084             14.72542
559.86441   957.05085   118.00000  16.64656             9.27073
561.74566   1989.70520  173.00000  19.39346             11.37129
561.18848   2006.23037  191.00000  19.15898             12.72577
562.72778   1040.73889  180.00000  17.04008             13.56398
576.73592   1914.00704  284.00000  29.92997             13.29338
574.35359   943.67956   181.00000  18.86664             12.64247
572.14563   1027.41748  103.00000  13.04548             10.03529
570.34146   856.14634   41.00000   8.03359              6.58043
581.12025   1177.92089  316.00000  27.88566             15.24593
582.10000   773.16296   270.00000  22.09210             15.62733
586.20063   1597.95298  319.00000  28.07232             14.60983
585.90654   522.87539   321.00000  23.07616             17.94244
586.44242   955.40000   165.00000  16.41116             12.96289
592.14030   34.87761    335.00000  27.22930             16.01879
590.23280   1092.87831  189.00000  20.46049             11.86474
589.97758   2001.21525  223.00000  17.39715             16.32895
588.71379   834.60345   290.00000  27.34035             13.85302
592.49612   997.48062   129.00000  13.85993             11.99308
596.53744   736.51101   227.00000  19.18431             15.19011
606.13592   650.16505   309.00000  22.01392             18.36247
603.46032   1013.57143  189.00000  17.57403             13.76750
605.92123   805.32192   292.00000  27.33132             13.75750
610.46032   980.06878   189.00000  20.16036             12.12277
611.57872   1509.56596  235.00000  25.09127             12.00335
611.34634   1002.71220  205.00000  18.77845             14.14725
611.61654   1025.06767  133.00000  14.52353             11.84591
615.91743   747.66972   218.00000  18.13293             15.77547
619.77813   1599.89062  320.00000  21.93665             18.63610
620.32895   1030.67105  76.00000   10.83250             9.20152
630.00000   390.71947   303.00000  22.53869             17.58044
632.34601   1064.31179  263.00000  23.80995             14.74406
637.67250   470.77000   400.00000  31.94168             16.15198
632.00687   969.60481   291.00000  22.41062             16.54589
627.75676   1024.97297  37.00000   8.25049              5.74674
638.04065   1029.69919  123.00000  15.66770             10.00529
639.38579   908.55330   197.00000  17.65563             14.37794
646.43810   805.54286   210.00000  18.82736             14.51540
646.47451   1790.72549  255.00000  21.45102             15.23008
647.54787   757.09043   188.00000  19.48523             12.40062
650.36000   1070.00000  200.00000  23.30417             11.20546
656.33766   2021.26623  154.00000  22.80801             9.26129
657.28014   529.01064   282.00000  25.62876             14.06196
659.33005   797.77340   203.00000  23.38553             11.38969
652.21795   1150.08120  234.00000  28.61906             10.59827
660.00977   1055.63192  307.00000  22.97428             17.21885
659.87500   654.35938   64.00000   9.77702              8.32727
664.25401   1117.01070  374.00000  28.83924             17.22055
670.77686   742.08264   242.00000  32.40047             9.81217
664.20225   1019.65169  178.00000  17.25859             13.16257
670.11628   918.80930   215.00000  19.48549             14.18880
670.96759   933.86111   216.00000  19.00271             14.98076
676.35517   1545.33793  290.00000  26.38639             14.37608
675.75269   779.84409   186.00000  17.58515             13.51133
673.76786   993.08036   112.00000  12.76272             11.16137
674.85000   1054.94167  120.00000  12.92004             12.26342
675.72821   1216.78462  195.00000  17.19360             14.47241
678.58672   960.29151   271.00000  21.85961             16.12172
676.29082   1889.61735  196.00000  18.29310             13.65289
683.08756   1157.30876  217.00000  19.32450             14.39642
685.07492   619.72964   307.00000  24.00222             16.61645
686.83270   821.81369   263.00000  24.04114             14.38635
688.02116   1026.10053  189.00000  21.54063             11.42548
690.30201   601.98322   298.00000  22.26776             17.40549
689.35238   1045.21905  315.00000  23.51189             17.14379
686.45192   1183.60577  104.00000  11.75607             11.36974
692.20536   876.30804   224.00000  20.97489             13.67233
688.10345   920.96552   29.00000   6.96956              5.33633
695.30279   1117.90837  251.00000  22.57332             14.52622
698.40928   732.55274   237.00000  21.79703             13.94944
693.56589   1070.82171  129.00000  14.52427             11.44325
698.32353   1227.43277  238.00000  19.90113             15.51188
702.72840   897.66667   243.00000  22.07675             14.09655
706.38806   533.45522   268.00000  24.84135             14.21330
698.95588   1063.05882  68.00000   12.53052             6.98441
706.13907   1281.34437  302.00000  24.24901             16.67066
703.60323   573.83226   310.00000  21.56644             18.55968
702.18653   972.44041   193.00000  16.35032             15.11585
707.73404   1329.98404  376.00000  36.23677             13.62629
707.08185   363.52669   281.00000  25.56235             14.07501
706.42321   769.53925   293.00000  26.37877             15.13672
702.58854   1087.81250  192.00000  19.15735             12.83775
706.51020   1814.31837  245.00000  21.22011             14.77622
705.87156   848.54128   109.00000  13.37113             10.45938
709.82635   926.42515   167.00000  20.58498             10.97838
706.40741   942.50370   135.00000  14.12975             12.41168
707.21893   1126.20118  169.00000  14.99035             14.61637
706.05405   876.02703   74.00000   11.05236             8.53311
705.44681   1242.08511  47.00000   8.78012              6.92386
712.67170   438.46792   265.00000  22.91117             15.05993
710.47778   836.28889   90.00000   12.32538             9.31830
714.03030   1015.27879  165.00000  17.42309             12.09867
710.66038   1212.56604  53.00000   8.42988              7.99074
715.65625   1032.87500  128.00000  16.85127             9.77979
715.13665   1261.73913  161.00000  16.16538             12.76062
713.68595   820.85124   121.00000  14.06068             11.06711
716.04636   1135.45695  151.00000  14.67966             13.15998
716.03226   2040.78065  155.00000  15.86492             12.46446
722.50566   1867.20377  265.00000  27.23971             13.22280
716.37600   889.16000   125.00000  14.05849             11.58237
719.76806   1059.87452  263.00000  24.42835             14.55599
717.25439   805.56140   114.00000  12.53780             11.61770
720.73171   1041.68293  123.00000  17.35410             9.26275
719.19718   517.51408   142.00000  15.07496             12.19128
724.62319   139.15942   345.00000  26.86937             16.73933
722.54762   789.88095   126.00000  12.94012             12.40474
722.70874   922.19417   103.00000  13.15474             10.73159
724.30597   824.06716   134.00000  14.47774             12.03681
721.71429   847.14286   35.00000   8.80818              5.04669
727.07968   935.78884   251.00000  21.17625             15.64428
728.52863   999.79736   227.00000  21.53519             13.67615
724.80460   888.49425   87.00000   13.86270             8.23201
726.95683   1025.15108  139.00000  14.55736             12.19762
730.89219   1200.54275  269.00000  20.04911             17.63498
728.36605   199.75597   377.00000  38.67240             12.52101
730.08438   1363.50938  320.00000  24.32781             17.09949
733.03226   1922.67742  155.00000  17.64264             12.51518
732.75000   519.91667   216.00000  16.80589             16.41608
732.64368   872.93103   174.00000  19.04179             11.87644
733.45562   1216.04142  169.00000  16.78489             12.81578
738.01370   1011.89498  219.00000  23.59733             11.92941
735.63850   1138.00000  213.00000  19.59140             13.96850
732.29605   1153.48684  152.00000  17.57128             11.13802
737.04981   1902.77395  261.00000  28.95063             12.45344
735.67677   853.92929   198.00000  18.46972             13.78868
740.20000   1392.20465  215.00000  26.78944             10.40805
734.01648   1090.46154  182.00000  22.06927             10.71491
736.08543   1236.64322  199.00000  19.93362             12.76675
736.92571   813.19429   175.00000  16.54368             13.54918
743.52071   1061.46154  169.00000  20.78068             11.42572
741.04407   1454.88814  295.00000  25.16546             15.30572
742.34307   1175.49635  137.00000  15.66422             11.20043
744.92718   657.49029   206.00000  20.69483             12.84209
746.72956   743.35849   159.00000  17.44754             12.04937
751.51032   1030.55457  339.00000  30.63325             14.33882
748.67429   872.59429   175.00000  17.84555             13.05262
756.20173   933.85303   347.00000  32.58994             15.03579
752.34483   673.24138   203.00000  20.81335             12.57056
748.36000   724.08000   75.00000   10.69539             9.12831
749.92513   1242.34759  187.00000  18.04309             13.26475
753.89806   1261.48544  206.00000  20.71328             12.82723
754.31797   1943.29954  217.00000  24.20116             11.66376
754.57062   778.00565   177.00000  16.51857             13.67190
763.01634   1402.12745  306.00000  32.89574             12.25698
757.85978   735.77860   271.00000  23.85503             14.80977
756.42449   532.04898   245.00000  19.31918             16.19507
753.83721   690.30233   86.00000   11.52163             9.72497
753.17143   970.40000   70.00000   9.92567              8.96626
756.24699   1286.01205  166.00000  22.39182             9.62372
756.16981   1001.73585  53.00000   11.47336             6.01188
763.90535   888.20576   243.00000  28.63491             10.85458
764.07463   1060.43284  201.00000  26.75190             10.56678
760.76220   850.23171   164.00000  15.83759             13.23675
762.38649   310.92973   370.00000  35.30534             13.51413
763.71094   942.69531   128.00000  14.69780             11.11991
764.01435   1072.49282  209.00000  19.57855             13.68429
761.56410   1207.25641  39.00000   8.38328              5.99896
767.62759   839.19310   145.00000  15.58921             11.97737
768.07692   1289.13846  130.00000  14.52419             11.81787
768.28571   1328.59664  119.00000  12.47512             12.14720
770.01807   799.92169   166.00000  15.50404             13.65684
768.04225   974.54930   71.00000   10.25160             8.80576
769.21875   2022.71875  128.00000  14.08410             11.65577
773.13846   1012.38974  195.00000  17.83106             14.04656
779.26351   1151.82095  296.00000  30.03438             12.86263
768.76667   959.30000   30.00000   6.83675              5.56307
770.11029   1185.77206  136.00000  17.34417             10.82648
771.03448   1108.74138  58.00000   13.69327             5.44169
778.61714   1240.54286  175.00000  22.58037             10.18252
779.67586   1751.33793  290.00000  24.43596             15.34465
778.99515   942.30097   206.00000  22.71917             11.64112
776.49412   1099.11176  170.00000  15.22327             14.26158
779.78049   1181.65854  164.00000  21.20557             10.05253
777.77381   1260.27381  168.00000  17.56601             12.21584
776.62500   2009.93382  136.00000  17.16067             10.25055
775.70000   2041.88333  120.00000  12.73972             12.04610
781.28614   217.45482   332.00000  20.94894             20.39824
780.94771   1323.64052  153.00000  17.00127             11.66341
782.64904   1309.35096  208.00000  20.78669             12.82316
779.38000   1072.10000  50.00000   8.57710              7.38396
786.61654   1827.59398  266.00000  21.10743             16.36098
783.58889   2028.73333  180.00000  19.65739             11.68334
786.85075   84.27985    268.00000  21.14037             16.33641
785.63333   737.97778   180.00000  17.17466             13.47693
783.10448   1230.18657  134.00000  14.11440             12.26784
787.66935   908.89919   248.00000  20.39680             15.76216
788.59127   1136.61111  252.00000  23.90370             13.49766
789.76947   787.94081   321.00000  24.15855             17.21208
792.99679   882.87500   312.00000  27.42355             14.76678
788.12274   1116.80144  277.00000  20.07970             17.62441
789.30638   760.98723   235.00000  21.60974             14.07124
791.08947   986.92632   190.00000  24.21807             10.15909
788.40741   1202.32593  135.00000  14.84447             11.68971
787.87597   2013.45736  129.00000  13.83590             12.01864
791.50628   1883.71967  239.00000  18.45830             16.66127
