# Filename: Nuclei_416_ctrl_60x_001.npz
# Voxel size (nm): (108, 108)
# Area quantity: voxels
# Num nuclei detected: 1489
Y           X           AREA       MAJOR_AXIS_LENGTH    MINOR_AXIS_LENGTH
69.76538    561.66154   260.00000  26.07594             13.00803
69.09524    1535.03175  126.00000  16.39273             10.39259
75.84362    589.34568   243.00000  19.60498             15.82959
89.85039    612.37795   127.00000  14.28368             11.37246
108.38000   655.11000   200.00000  19.37182             13.19956
135.54618   709.02410   249.00000  21.52374             14.80674
149.59813   1061.02336  214.00000  21.98106             12.47640
190.89404   995.35099   151.00000  16.76995             12.05103
193.20635   905.01587   252.00000  20.31876             15.92201
195.49147   970.78157   293.00000  21.24752             17.78436
225.34921   591.21825   252.00000  22.09373             14.59761
231.88031   608.12741   259.00000  20.78057             16.16479
234.54506   652.94421   233.00000  21.28746             13.96247
236.49032   1041.54839  155.00000  15.29532             12.95058
238.36364   704.06061   231.00000  22.25627             13.28245
246.56679   760.60650   277.00000  21.92281             16.22508
259.86452   818.99355   310.00000  21.78288             18.29505
261.52288   865.60784   306.00000  23.22895             17.08377
273.04839   1023.95699  186.00000  17.35890             13.78558
290.88688   994.28959   221.00000  19.53740             14.53289
294.51931   942.13305   233.00000  18.95784             15.66008
308.47802   956.32967   182.00000  16.66921             14.25343
311.73391   973.05579   233.00000  19.49927             15.36688
318.16354   817.27882   373.00000  23.81330             21.38189
321.41346   869.75481   208.00000  17.99094             14.75746
320.02041   954.27211   147.00000  16.32820             11.71347
326.21012   741.84436   257.00000  19.14027             17.33700
332.48387   927.30968   155.00000  16.76529             11.79145
338.76733   938.68317   202.00000  17.12586             15.53007
345.40357   702.50000   280.00000  20.55122             17.41957
356.03846   874.39510   286.00000  26.79651             13.68524
359.91713   963.84530   181.00000  18.85536             12.23545
361.19753   906.43827   162.00000  15.06452             13.73397
363.75417   1020.17083  240.00000  19.01743             16.16488
364.25463   741.95370   216.00000  17.84857             15.42441
363.15748   241.62205   127.00000  15.47024             10.51158
371.46996   661.21555   283.00000  23.60073             15.40320
369.40373   858.59006   161.00000  16.74409             12.29264
377.46087   728.62609   230.00000  17.74365             16.56650
381.23735   477.66537   257.00000  22.00519             14.99536
389.35018   942.75090   277.00000  23.27459             15.29975
390.58148   985.75185   270.00000  23.83780             14.63637
391.63587   847.02717   368.00000  30.56446             15.82052
389.37561   694.98537   205.00000  16.31923             16.06048
391.76860   631.39669   242.00000  19.51983             15.92540
395.53712   753.86026   229.00000  25.78394             11.64645
400.30943   1052.92453  265.00000  26.65088             13.98495
404.12500   412.13971   272.00000  22.42536             15.51317
405.76667   817.18333   180.00000  18.41582             12.76731
413.17172   588.21717   198.00000  18.62894             13.64259
413.41553   1010.52055  219.00000  17.99745             15.52809
417.15207   844.40092   217.00000  16.72405             16.63876
419.09020   669.90980   255.00000  26.68730             12.74540
419.60952   91.42381    210.00000  16.93795             15.78854
421.35662   572.69485   272.00000  22.09649             15.86291
427.68210   966.02160   324.00000  33.12503             12.57360
425.21923   504.31154   260.00000  23.85671             13.99714
429.02688   639.02688   186.00000  17.53754             13.61304
429.20690   293.27586   58.00000   11.18432             6.80073
433.33668   463.40201   199.00000  18.50233             13.84037
439.63208   738.48113   212.00000  21.56394             12.85310
439.80263   604.69298   228.00000  22.54917             13.00742
438.27136   93.06030    199.00000  17.87670             14.21130
437.50725   821.13043   69.00000   10.07275             8.71480
447.40260   760.92641   231.00000  23.33379             12.97506
447.70219   994.97806   319.00000  25.97793             16.01986
443.13750   366.74375   160.00000  16.93973             12.04129
443.30469   865.31250   256.00000  29.80323             11.26252
447.33478   444.48261   230.00000  18.06872             16.24491
447.50233   468.11628   215.00000  17.76018             15.51673
450.61165   1033.35922  206.00000  19.61842             13.48999
450.54698   296.42282   298.00000  26.83727             14.25391
448.42614   783.97727   176.00000  19.17262             11.79933
449.52475   829.25248   202.00000  18.19094             14.18060
456.29808   375.29327   208.00000  17.64815             15.12432
456.93640   1144.38869  283.00000  21.66642             16.77452
453.84615   230.32967   91.00000   11.58980             10.28808
457.01792   676.95699   279.00000  23.70894             15.22595
458.50888   80.46154    169.00000  16.11659             13.51286
456.98851   413.54023   174.00000  17.35823             12.83124
460.29316   546.70684   307.00000  24.54057             16.05813
460.70647   808.56716   201.00000  20.65896             12.50176
461.95187   641.40642   187.00000  17.38143             13.85862
464.38942   1088.61538  208.00000  21.96032             12.19510
465.81053   67.45263    190.00000  17.86442             13.67439
469.00971   570.71521   309.00000  21.35268             18.64349
464.78351   903.37113   97.00000   13.11763             9.40196
466.54190   289.18436   179.00000  17.09357             13.39882
469.69820   488.92793   222.00000  17.27486             16.39828
471.04651   662.58527   258.00000  21.64841             15.29661
472.73529   181.64706   204.00000  17.92114             14.52897
477.10732   855.00976   205.00000  23.15285             11.62477
479.52412   643.10289   311.00000  22.92257             17.45028
479.50993   1096.57616  151.00000  17.59794             11.20990
487.40385   1006.85897  312.00000  39.87030             11.13304
484.35802   1048.65432  162.00000  17.68078             11.79537
486.84211   504.10150   266.00000  20.14837             16.85068
485.22819   614.18121   149.00000  15.95565             12.16242
486.25616   57.69458    203.00000  17.20788             15.12597
488.87225   903.50661   227.00000  18.92539             15.33529
490.16165   476.65414   266.00000  20.75741             16.44314
490.47059   857.03209   187.00000  17.80613             13.55292
491.78244   454.81298   262.00000  20.75632             16.46588
492.12791   623.40698   172.00000  18.14740             12.36055
493.24057   776.29717   212.00000  27.16486             10.30641
491.41243   264.31073   177.00000  17.78321             12.78548
492.32735   390.76682   223.00000  19.48183             14.71795
493.80693   692.52970   202.00000  18.79501             14.00984
494.74038   406.70192   208.00000  18.26803             14.55264
494.67895   590.58947   190.00000  18.19832             13.86445
495.82036   811.24551   167.00000  16.25831             13.10509
499.69286   1063.16786  280.00000  27.52629             13.48650
495.68382   176.02206   136.00000  14.99494             11.61707
496.26702   282.74346   191.00000  16.36851             15.15966
496.72131   318.56967   244.00000  22.67892             13.73109
497.79100   530.02572   311.00000  21.87036             18.14837
498.07586   65.65517    145.00000  14.43683             12.88292
505.25498   581.64542   251.00000  21.70360             14.76420
503.41398   709.17742   186.00000  16.43530             14.39873
505.29362   772.59574   235.00000  25.95785             11.70052
506.69286   456.42857   140.00000  15.87876             11.25241
509.61250   630.87083   240.00000  18.13100             16.92525
517.46705   932.77077   349.00000  33.22242             13.87861
508.97253   1152.78571  182.00000  15.36270             15.17911
513.63084   749.06075   214.00000  19.99106             14.30987
513.49167   52.06667    120.00000  13.31275             11.64038
517.10615   518.86034   179.00000  17.51456             13.12294
521.80923   223.22154   325.00000  25.29838             16.60407
515.47826   506.65217   138.00000  14.90120             11.88639
520.41290   671.05161   155.00000  14.71132             13.53443
518.20000   711.10000   30.00000   7.28546              5.26518
522.83019   1154.66509  212.00000  17.29764             15.93051
527.63158   1103.35673  342.00000  25.83793             17.32542
527.45420   478.46565   262.00000  19.06393             17.80800
526.94389   400.60396   303.00000  22.96923             16.81955
530.80859   915.92969   256.00000  22.76938             14.62284
531.79144   542.80749   374.00000  31.61473             15.96891
536.98658   1049.20134  298.00000  30.78577             12.75431
534.16746   325.62201   209.00000  18.39911             14.56814
528.49254   654.50746   67.00000   10.80783             7.91528
536.26573   348.02797   143.00000  15.98582             11.40161
544.89976   871.28878   419.00000  30.04469             18.03188
539.90071   444.36170   141.00000  15.05651             11.97341
538.36364   846.87013   77.00000   11.29763             8.81874
538.34545   965.78182   55.00000   9.57571              7.36812
540.79592   35.18367    147.00000  15.13869             12.38971
544.10112   570.67416   178.00000  18.02636             12.77715
544.82397   590.56554   267.00000  23.49555             14.60624
542.94966   782.76174   298.00000  23.64040             16.31469
549.67220   179.93361   241.00000  18.48804             16.73332
549.07104   851.73770   183.00000  17.59959             13.44252
548.63248   491.85897   234.00000  19.03290             15.67798
552.07727   434.12273   220.00000  21.11515             13.45955
549.08333   729.48333   180.00000  16.88899             13.58357
552.88800   912.33600   250.00000  21.46832             15.06308
558.08280   401.40764   314.00000  23.64092             17.61498
556.75000   448.01500   200.00000  17.55939             14.65961
557.45455   1007.95105  286.00000  28.56719             12.93495
558.15976   577.85207   169.00000  16.83267             13.01514
558.34831   115.98876   178.00000  15.96324             14.55081
560.13744   515.80095   211.00000  17.24372             15.64876
562.22394   640.08494   259.00000  19.85425             17.04715
566.78788   539.43333   330.00000  22.53201             19.36076
568.42960   163.58484   277.00000  22.45468             16.51159
568.25424   197.38136   236.00000  22.23132             13.69030
568.98529   240.03431   204.00000  17.02210             15.36836
570.70391   433.87709   179.00000  17.46469             13.08757
576.78571   1172.93233  266.00000  23.15250             15.03066
576.89216   948.43137   204.00000  19.27856             13.54430
576.42857   117.95767   189.00000  17.05625             14.38254
577.02913   348.82039   206.00000  19.20544             13.70210
574.57764   572.93789   161.00000  17.24351             12.05655
575.79923   817.82239   259.00000  24.53130             13.48588
577.60248   22.61491    161.00000  15.93242             12.91500
579.39850   1026.66917  266.00000  24.70347             13.91499
583.19749   261.18182   319.00000  25.78025             15.90430
582.30328   378.75410   244.00000  20.53666             15.29823
583.01460   83.02555    274.00000  19.08244             18.36034
582.48693   670.48039   306.00000  24.48389             16.11744
582.37815   796.63025   238.00000  19.57160             15.53440
583.38489   421.94604   278.00000  20.95213             17.01548
581.92273   738.97273   220.00000  17.59947             16.00131
585.30827   895.82707   266.00000  23.08246             14.81103
582.47531   764.66667   162.00000  16.45146             12.55531
585.61345   877.26471   238.00000  23.22963             13.59183
586.58696   694.02609   230.00000  17.27899             16.96596
589.17308   570.60256   156.00000  18.44649             10.86997
592.64091   1020.78182  220.00000  21.83538             12.85552
597.07951   314.66361   327.00000  28.91100             15.33531
593.71910   547.89888   267.00000  23.82833             14.57147
598.79252   1087.12585  294.00000  30.18735             12.70061
599.57090   348.66791   268.00000  20.80425             16.47325
598.95652   644.44928   207.00000  19.37373             14.36002
600.45517   31.40690    145.00000  14.02958             13.30051
601.52290   420.01527   262.00000  20.98877             16.41382
604.80093   227.40278   216.00000  17.96587             15.35981
603.06140   659.96491   228.00000  18.09180             16.31843
603.50769   706.00513   195.00000  16.28122             15.34317
605.66527   994.60251   239.00000  19.47169             15.66801
607.33884   470.38430   242.00000  21.80809             14.23796
614.35938   1179.74219  256.00000  28.88100             11.72105
610.50952   397.43810   210.00000  18.67978             14.74200
614.24430   598.64169   307.00000  21.76747             18.56309
612.00000   755.45813   203.00000  17.79205             14.72259
612.07692   686.38462   52.00000   9.01960              7.35061
614.98621   939.50345   145.00000  16.77859             11.17107
616.56707   69.18293    164.00000  20.01038             11.04544
617.90286   288.80000   175.00000  18.54365             12.23878
624.41564   914.22634   243.00000  24.81370             12.81031
626.79715   879.28826   281.00000  25.01643             14.39275
621.81250   689.29167   96.00000   13.47044             9.08975
622.10156   704.17969   128.00000  15.70072             10.46689
632.06395   1069.23256  344.00000  37.04224             12.09121
628.92430   381.43028   251.00000  21.71002             14.78490
626.36555   638.40336   238.00000  21.07155             15.16702
625.87143   499.93571   140.00000  14.70723             12.15829
633.44404   679.93141   277.00000  21.23893             17.03264
628.81481   288.01235   162.00000  18.22001             11.58645
634.15033   476.95752   306.00000  22.55514             17.52830
634.45977   539.26437   87.00000   15.98994             7.43126
636.15353   43.95021    241.00000  17.94581             17.26880
636.14953   964.72430   214.00000  18.49274             14.84612
635.92216   223.59880   167.00000  15.48460             13.75049
640.11579   447.16842   285.00000  24.74636             14.89336
637.95185   1110.63704  270.00000  25.68922             13.58514
641.89912   1011.55263  228.00000  24.51931             12.03502
643.49027   984.24514   257.00000  19.89333             16.68781
643.39676   1181.02024  247.00000  21.79506             14.53367
642.84914   512.43966   232.00000  20.44957             14.75593
642.87843   620.17255   255.00000  20.97621             15.68537
645.12917   637.62917   240.00000  26.66812             11.74496
645.45349   937.59302   172.00000  17.83416             12.35530
648.04478   127.63682   201.00000  18.51638             13.83328
649.54502   160.86256   211.00000  18.11086             14.85422
649.34254   283.06630   181.00000  17.00334             13.58378
651.55472   662.19245   265.00000  20.98623             16.28826
653.11940   716.51244   201.00000  17.61325             14.64440
659.56478   187.50166   301.00000  23.20928             16.58000
659.89583   410.67500   240.00000  23.45515             13.10187
654.45690   1123.62069  116.00000  14.01796             10.56636
659.81707   92.20325    246.00000  19.29872             16.28272
661.14754   437.77869   244.00000  21.34315             14.81228
655.00000   905.50000   16.00000   4.89898              4.00000
661.91045   621.30846   201.00000  21.28214             12.15271
664.24324   548.78378   111.00000  14.84756             9.51335
669.63986   1103.88462  286.00000  24.81420             14.99775
669.38793   594.91379   232.00000  20.03023             14.82266
670.16062   983.24352   193.00000  17.15702             14.43891
675.10724   515.19839   373.00000  26.25849             18.50252
677.85475   1036.28492  358.00000  34.24507             13.83650
672.44162   635.74619   197.00000  18.12859             13.87234
673.93902   1166.29675  246.00000  28.78709             11.11714
674.18265   36.18265    219.00000  18.01824             15.50288
673.24742   265.06701   194.00000  16.99284             14.53918
673.92778   164.91111   180.00000  15.60181             14.72172
675.86486   685.22703   185.00000  16.99971             14.09968
676.12632   767.16316   190.00000  17.18524             14.31624
676.16667   146.84259   108.00000  14.46671             9.66586
682.83482   52.43304    224.00000  17.95241             16.14629
688.68622   354.36950   341.00000  27.89594             16.95374
681.67358   554.41969   193.00000  19.41586             12.68893
683.50000   1002.86765  204.00000  17.50189             14.92700
687.09968   922.07074   311.00000  29.44232             14.00589
685.10762   948.80717   223.00000  19.02757             14.94762
688.79825   1179.70614  228.00000  24.18775             12.17736
690.21721   774.96721   244.00000  18.68334             17.10901
693.65939   73.62009    229.00000  25.97822             13.03092
695.49642   695.13842   419.00000  28.92168             21.32044
692.57778   502.38889   180.00000  17.73263             12.94490
693.98270   717.49135   289.00000  24.49926             15.31362
697.07407   213.40741   270.00000  20.63491             16.98163
696.10096   633.07212   208.00000  19.26950             13.94969
695.35268   439.81696   224.00000  19.07505             15.19076
701.11441   979.26695   236.00000  25.66206             11.74476
698.75102   173.71020   245.00000  22.13377             14.18844
695.67593   264.35185   108.00000  12.80304             10.85829
700.36957   913.45652   230.00000  24.97961             11.91543
700.87234   297.96596   235.00000  27.52149             10.98116
706.05983   463.76068   234.00000  26.51588             14.19050
701.59444   558.88889   180.00000  20.06674             12.09257
704.14433   579.85567   97.00000   13.52409             9.12792
706.53371   642.47191   178.00000  16.18101             14.15120
710.29310   243.05172   232.00000  24.68744             12.14889
710.14894   681.40071   282.00000  27.60316             13.80795
710.66818   194.95000   220.00000  17.57046             15.96886
713.39333   1215.35000  300.00000  27.62858             13.95085
714.14015   22.68182    264.00000  20.10103             16.75535
716.61968   1137.32181  376.00000  23.62926             20.52465
720.18065   149.09677   310.00000  24.26068             16.48495
718.97338   966.22053   263.00000  22.81997             14.76648
722.53795   598.24422   303.00000  24.41378             15.97337
719.56557   526.03279   244.00000  18.29315             17.09844
723.40831   332.64303   409.00000  26.56154             20.21687
722.88286   416.28000   350.00000  24.25476             19.27584
721.58791   366.12088   182.00000  17.33307             13.57432
721.15880   708.45923   233.00000  20.71282             14.50380
726.09459   627.66216   296.00000  22.72007             18.00276
723.93478   1247.04891  184.00000  17.20819             13.85131
724.85841   199.42035   226.00000  21.87414             13.26126
724.86047   512.75000   172.00000  18.13407             12.17631
725.36140   226.94737   285.00000  26.26260             13.93776
726.28108   668.03243   185.00000  22.90748             10.48752
729.33854   837.11979   192.00000  19.41598             12.74583
728.74854   550.18129   171.00000  16.61907             13.10595
