# Filename: Nuclei_bidi_pfa_007.npz
# Voxel size (nm): (108, 108)
# Area quantity: voxels
# Num nuclei detected: 1200
Y           X           AREA       MAJOR_AXIS_LENGTH    MINOR_AXIS_LENGTH
10.04478    691.74627   201.00000  17.21466             15.08273
13.80000    669.36279   215.00000  17.96755             15.33026
68.91787    941.92754   207.00000  18.29549             14.50774
85.20909    1452.89545  220.00000  24.25253             11.94968
90.06007    772.97527   283.00000  21.55294             16.80728
96.54468    800.76170   235.00000  21.67644             13.99757
100.03261   1492.21739  92.00000   12.16533             9.75867
111.82627   960.87712   236.00000  23.75000             12.73829
116.13333   858.72889   225.00000  19.19624             14.94879
122.35323   915.34328   201.00000  19.59357             13.09556
121.91089   941.15347   202.00000  18.47774             13.97628
122.25694   1011.93750  144.00000  17.37684             10.89515
126.63725   929.11765   204.00000  21.50000             12.09974
128.17277   1362.31937  191.00000  17.67294             14.07934
130.42268   869.45361   194.00000  16.66563             14.85541
132.51031   1077.56701  194.00000  18.30966             13.75269
134.26383   1045.40426  235.00000  21.42487             14.05232
135.09402   397.25641   117.00000  13.66972             11.17904
143.78333   1434.06111  180.00000  18.37308             12.68846
149.12448   370.99170   241.00000  23.54417             13.15516
149.14286   425.53741   147.00000  14.66237             12.99448
164.49776   1444.85650  223.00000  18.03130             15.95889
179.78392   434.69849   199.00000  18.09331             14.13781
181.61143   1401.93714  175.00000  17.51473             12.73783
189.41327   1385.68878  196.00000  18.06416             13.85109
190.64706   414.53782   238.00000  21.60927             14.14327
193.82609   1340.44720  161.00000  19.83293             10.62001
196.19231   493.21538   130.00000  13.61614             12.27276
198.51572   1359.22642  159.00000  15.25122             13.30853
203.79255   462.96809   188.00000  17.38654             13.86497
204.24096   433.98795   166.00000  15.96947             13.34063
207.74194   484.66129   124.00000  15.16487             11.30927
214.57787   419.97131   244.00000  19.42157             16.06964
219.48387   1340.47312  279.00000  20.15402             17.69901
221.92432   1265.85405  185.00000  18.12153             13.28602
224.92222   262.85926   270.00000  20.42982             17.24897
225.07947   204.90728   151.00000  15.67490             12.32209
228.35681   1315.32394  213.00000  19.49993             13.95766
229.80088   1290.59292  226.00000  18.49383             15.64547
234.12150   294.14486   214.00000  19.13815             14.37678
241.16165   1253.89850  266.00000  21.92289             15.55028
242.11111   400.77395   261.00000  20.25055             16.46811
257.01471   178.56618   136.00000  18.57668             9.55531
284.42128   508.84681   235.00000  20.24335             15.09108
288.44724   383.68342   199.00000  16.82782             15.13293
297.69565   637.17391   161.00000  15.11657             13.63164
303.68528   395.47716   197.00000  19.43845             13.06389
303.62319   506.54348   138.00000  14.28131             12.36885
306.75000   593.05769   208.00000  18.88771             14.10023
306.82812   59.45312    64.00000   10.81724             8.04547
311.94819   646.45596   193.00000  20.60443             12.20316
309.28750   453.32500   80.00000   11.47575             8.96072
312.54359   468.04615   195.00000  16.17655             15.35556
316.37245   1543.61224  196.00000  21.41928             12.47436
313.64322   618.79397   199.00000  17.44743             14.64099
319.80631   444.70270   222.00000  19.68591             14.37215
325.54545   386.68595   363.00000  27.34616             17.46742
325.41500   413.89000   200.00000  18.51641             13.77655
326.89268   497.66341   205.00000  17.66690             14.94676
331.16897   1606.81724  290.00000  26.58037             14.66957
329.09722   565.07870   216.00000  18.23555             15.12269
340.00000   510.38776   245.00000  18.63571             16.80872
340.35359   687.63536   181.00000  16.24537             14.20232
345.54572   466.55162   339.00000  24.01882             18.20076
344.08629   571.04061   197.00000  16.55498             15.18416
344.74900   192.56972   251.00000  25.49509             12.85866
348.81675   702.40314   191.00000  17.57690             13.87599
363.51196   177.24880   209.00000  17.53408             15.28873
366.83756   234.46701   197.00000  19.33760             13.45093
374.72195   442.37561   205.00000  18.41937             14.25152
382.86695   263.33047   233.00000  21.64732             14.10774
385.43087   524.15756   311.00000  22.91344             17.42874
384.87547   671.78491   265.00000  20.19295             16.78847
383.34682   452.54913   173.00000  16.27258             13.62387
386.57436   1647.56410  195.00000  20.22475             12.32862
389.17734   494.56650   203.00000  18.30855             14.22848
390.85088   1564.26316  228.00000  19.39150             15.15466
392.31522   706.14130   276.00000  20.72517             17.16354
394.09365   290.15050   299.00000  23.59005             16.34116
393.44149   149.85638   188.00000  18.56366             12.95596
398.97030   1673.93564  202.00000  19.49233             13.53574
402.30943   1451.85283  265.00000  21.93490             15.42163
405.40513   1647.02051  195.00000  17.81409             14.32605
409.48829   856.49833   299.00000  25.92312             15.44749
408.64344   1621.22541  244.00000  19.74431             15.80529
406.13836   1541.86164  159.00000  14.90179             13.65581
409.07787   1587.73770  244.00000  22.94844             13.72711
409.65766   702.28378   222.00000  19.67794             14.40822
412.45989   688.54011   187.00000  18.99763             12.62462
413.78075   488.96791   187.00000  16.00974             14.89837
418.89490   1066.23248  314.00000  23.26811             17.49466
421.80603   1660.21121  232.00000  19.64876             15.12443
424.26570   505.85507   207.00000  17.74325             14.94858
436.08696   1115.62802  207.00000  19.98986             13.30733
438.07558   1615.87209  172.00000  14.97250             14.66943
444.98662   1555.84950  299.00000  31.97989             12.59870
440.33505   1574.99485  194.00000  19.19450             13.58294
441.17722   1597.03165  158.00000  15.90130             12.70890
444.07000   712.25500   200.00000  18.34254             13.98115
446.31016   1102.35294  187.00000  18.21665             13.18000
450.72866   1134.26829  328.00000  22.31706             18.80736
448.84351   775.09924   262.00000  25.61940             13.07222
455.47917   1723.67361  144.00000  15.36401             12.10657
457.57057   819.56156   333.00000  26.83205             16.37611
459.04000   1095.84500  200.00000  18.84248             13.57022
457.47647   1573.03529  170.00000  17.59643             12.35678
464.32787   787.19262   244.00000  22.12541             14.21227
462.81529   155.67516   157.00000  16.80887             11.98585
465.25694   1602.18403  288.00000  21.44456             17.12469
464.55804   1667.89286  224.00000  19.61641             14.61756
467.07116   568.42322   267.00000  20.89966             16.38816
467.79114   1688.94304  158.00000  15.21750             13.32674
474.61345   519.26891   238.00000  18.39826             16.56989
473.81858   357.92035   226.00000  18.20575             15.90771
474.53448   1573.60776  232.00000  19.92961             14.87369
478.07212   181.50962   208.00000  24.04530             11.37341
478.13694   1526.37580  314.00000  25.77433             15.62875
482.57831   723.63052   249.00000  18.84171             17.14739
479.93750   775.62500   160.00000  16.51028             12.45384
481.02874   1550.00575  174.00000  18.70088             11.87914
485.31752   571.08394   274.00000  21.19350             16.61326
482.59135   1380.49519  208.00000  17.41428             15.21112
484.66667   1678.74306  144.00000  15.38012             11.98406
494.96316   383.36316   190.00000  20.54743             11.84850
496.33036   533.33482   224.00000  19.35813             14.93587
498.97276   1057.77043  257.00000  20.12519             16.32087
500.18269   1155.08974  312.00000  22.23215             17.96555
505.51738   1340.01636  489.00000  32.19769             22.25423
503.57049   692.75410   305.00000  24.01834             16.25131
501.32234   1093.86081  273.00000  23.15342             15.11366
503.74704   1412.75099  253.00000  20.44774             15.84063
505.08140   1552.29070  258.00000  18.64360             17.67878
505.49624   1618.78571  266.00000  20.40076             16.86052
513.97692   1533.98077  260.00000  25.51537             13.65839
513.00651   761.96743   307.00000  21.11582             19.15530
513.10219   1181.41971  274.00000  21.98677             15.99150
510.00000   1674.88172  93.00000   13.29803             9.06683
514.18310   1124.38732  284.00000  22.30742             16.31227
510.80488   1194.52033  123.00000  12.61220             12.44792
513.97778   1259.54815  270.00000  20.61554             16.73649
514.96063   1598.07480  254.00000  22.01804             14.85485
514.01639   539.33880   183.00000  16.76212             13.97067
514.71200   814.09200   250.00000  19.42332             16.52611
514.59864   1057.67687  294.00000  24.73349             15.30127
521.89535   200.58527   258.00000  24.86922             13.38248
521.88024   1692.49701  167.00000  16.21922             13.16731
525.01531   791.87755   196.00000  17.60651             14.20735
527.88235   419.18824   255.00000  21.49475             15.27766
530.63839   1079.06250  224.00000  19.47263             14.75580
530.88235   1315.83333  204.00000  18.29382             14.29808
531.55814   1397.14419  215.00000  18.35579             14.96162
532.54545   1225.35227  176.00000  16.36165             13.89263
534.55556   1020.92308  234.00000  19.03112             15.71859
532.78707   1061.03042  263.00000  21.69068             15.67003
539.30690   401.66897   290.00000  21.67711             17.52874
541.46078   535.35784   204.00000  18.06574             14.61756
549.66015   1155.87042  409.00000  33.68093             16.58310
545.32418   1334.93407  182.00000  17.20239             13.58399
548.76250   1120.39375  320.00000  22.69644             18.15457
548.97449   1035.73980  196.00000  18.45162             13.61853
547.94619   1175.84305  223.00000  22.07814             13.11996
551.61357   346.84661   339.00000  26.71250             16.68999
552.43496   669.52439   246.00000  27.32135             11.65088
551.20961   1362.32314  229.00000  21.22197             13.78583
552.85992   438.64202   257.00000  19.13458             17.27061
553.56291   801.33775   302.00000  21.99227             17.50046
553.95506   1689.30712  267.00000  21.32704             16.05624
555.96735   214.30612   245.00000  21.25728             14.73464
556.69847   1637.75191  262.00000  23.30980             14.72962
554.24498   1228.64257  249.00000  20.17640             15.89919
559.29010   820.43686   293.00000  20.95492             18.06057
561.13659   1139.78049  205.00000  17.59765             14.98632
562.67660   1656.03830  235.00000  18.20981             16.49808
565.81383   534.98936   188.00000  17.61464             13.66071
566.06695   1090.66109  239.00000  18.09653             16.91263
565.54497   1043.85185  189.00000  16.63825             14.61940
566.57368   1214.19474  190.00000  18.13245             13.34855
570.07422   1585.10156  256.00000  21.51969             15.27129
573.40850   625.85621   306.00000  21.23404             18.73440
573.47137   446.36564   227.00000  18.61184             15.60448
573.36741   1186.92652  313.00000  22.67783             17.77298
576.81227   383.29242   277.00000  24.81734             14.25254
576.60324   1697.58300  247.00000  20.60081             15.44712
579.28947   1076.83224  304.00000  19.97096             19.64021
578.82096   1297.44978  229.00000  20.56370             14.18054
580.52069   598.00000   290.00000  20.74123             17.88396
580.07143   802.44286   210.00000  18.05118             14.85171
584.93939   849.03704   297.00000  22.10158             17.23842
587.68750   1283.59559  272.00000  24.87331             14.08038
585.31325   462.04418   249.00000  18.55924             17.38143
584.50000   507.92308   156.00000  14.68647             13.50812
589.21371   414.86290   248.00000  19.38333             16.29853
594.97554   1058.63609  327.00000  23.26450             18.03288
596.48230   1160.11504  226.00000  20.46896             14.18804
597.86897   810.36207   290.00000  22.66257             16.49434
598.68601   875.54949   293.00000  21.17604             17.69807
601.49327   740.23318   223.00000  21.52868             13.21992
601.95154   1728.63436  227.00000  17.73000             16.39004
602.80000   452.77436   195.00000  16.27169             15.29850
605.45000   502.80500   200.00000  18.84918             13.90756
609.52273   420.63258   264.00000  18.81814             17.95989
607.62338   799.70779   154.00000  16.30606             12.05545
611.52083   895.94097   288.00000  25.38606             14.49470
608.93617   491.23404   141.00000  13.71507             13.15933
612.98673   242.36283   226.00000  19.54212             14.86446
609.76471   723.72059   68.00000   9.78897              8.87395
617.90566   785.27547   265.00000  22.30389             15.57994
615.50163   1123.59609  307.00000  21.93722             18.08391
622.78498   1644.81229  293.00000  20.04280             18.65036
630.46009   771.38028   213.00000  24.85203             11.06871
629.78313   1308.55020  249.00000  20.86679             15.31388
630.64314   1176.59608  255.00000  22.62049             14.66363
634.80000   714.60645   310.00000  20.82975             19.16339
632.49153   807.88136   177.00000  15.76029             14.57796
636.66187   788.61871   278.00000  22.50132             15.87481
642.23920   753.70100   301.00000  25.77959             15.68683
642.64059   525.66259   409.00000  31.28608             17.88039
639.85141   574.14056   249.00000  19.13581             16.58163
643.36726   906.69469   226.00000  23.14504             12.50780
645.46058   683.37759   241.00000  18.92678             16.47184
640.34000   833.56000   50.00000   8.73217              7.31587
650.33579   1725.40221  271.00000  22.28156             15.83434
652.22568   780.78988   257.00000  23.92207             14.29332
653.90323   396.68952   248.00000  19.33584             16.54263
659.70370   1207.11934  243.00000  19.69289             15.88092
658.45113   864.25564   133.00000  16.32373             10.47019
660.51220   228.11220   205.00000  18.68273             14.05080
665.73134   485.18905   201.00000  17.18015             14.96235
669.25556   839.47222   180.00000  18.67696             12.28832
670.74009   757.60352   227.00000  19.40990             14.97821
680.87742   716.24194   310.00000  31.61402             14.04495
672.78947   856.51974   152.00000  16.66866             11.69653
674.07965   807.77876   113.00000  12.90055             11.20292
679.00000   943.26336   262.00000  23.72647             14.16285
680.67857   799.02381   168.00000  15.59256             14.18821
681.88000   1119.14000  200.00000  17.30068             14.88027
684.51282   1169.88462  234.00000  21.38108             14.21812
684.97279   506.47619   294.00000  20.77754             18.33997
687.12360   397.94007   267.00000  23.44706             14.61366
685.50485   873.77670   206.00000  19.93496             13.63794
683.81295   1080.79137  278.00000  23.24099             15.26208
684.87179   1716.90256  195.00000  18.06228             14.04117
690.04194   191.93871   310.00000  23.30367             16.97433
687.71429   1147.35357  280.00000  21.36470             16.80010
689.53030   766.55051   198.00000  18.54004             14.09525
692.45850   950.68775   253.00000  20.94155             15.65759
693.74760   751.12141   313.00000  24.86211             16.81683
690.72527   812.53846   91.00000   13.22608             8.91313
695.96698   820.74528   212.00000  24.03636             11.58357
698.60476   1282.89524  210.00000  19.06473             14.15943
700.44828   1523.46305  203.00000  18.49777             14.00192
704.56552   670.57586   290.00000  22.46585             17.93495
705.16912   540.29044   272.00000  23.56338             15.01238
703.10776   1226.32759  232.00000  19.93573             15.03244
706.12670   1268.79638  221.00000  19.41812             14.85033
703.91667   799.32051   156.00000  17.17714             11.65801
705.23361   856.67213   244.00000  18.34592             17.16023
704.30151   919.64322   199.00000  18.43222             13.75735
713.87546   1240.48718  273.00000  22.15673             15.75942
715.72065   178.44939   247.00000  20.30057             15.56253
713.79096   733.15819   177.00000  19.17349             11.84460
715.47843   762.30588   255.00000  21.26240             15.35278
715.76720   718.19577   189.00000  18.60756             12.95834
717.18874   501.52649   302.00000  22.05677             17.90161
721.41118   892.83224   304.00000  24.56745             15.91492
720.22346   486.54749   179.00000  15.94917             14.49817
719.88757   793.07692   169.00000  20.40329             10.57744
724.84568   611.29630   162.00000  14.97338             13.83098
725.86709   558.75316   158.00000  15.29160             13.22247
733.77246   779.09581   334.00000  28.40015             15.48346
732.63880   544.69231   299.00000  22.44344             17.84907
735.50289   703.20520   346.00000  24.49919             18.00883
734.82131   486.95876   291.00000  25.19811             14.80440
734.13793   729.88670   203.00000  19.29997             13.41298
738.80969   443.77163   289.00000  22.42725             16.55166
743.61888   911.52797   286.00000  21.98081             16.73207
742.01163   827.69767   172.00000  16.91902             13.02960
751.32487   672.73604   197.00000  18.58448             13.68227
755.88929   466.57500   280.00000  21.06744             17.01234
758.59813   203.65888   214.00000  18.49305             14.93508
757.80597   1034.92537  201.00000  16.62470             15.43603
763.44789   503.77183   355.00000  25.76240             18.09451
759.59449   815.17323   254.00000  18.73470             17.38433
761.10256   395.80342   234.00000  19.36137             15.42588
759.40602   1764.62406  133.00000  14.56799             11.64460
761.00699   772.27972   143.00000  14.70307             12.67426
767.30696   841.96519   316.00000  28.15943             14.68490
764.77880   860.07834   217.00000  21.12987             13.16267
767.52910   698.34392   189.00000  19.82877             12.23160
771.00000   936.25463   216.00000  17.81213             15.58210
777.54510   209.70980   255.00000  25.28497             13.43439
775.65294   964.98235   170.00000  15.88612             13.65130
775.56667   407.30667   150.00000  15.47179             12.42180
778.29500   394.63000   200.00000  17.47242             14.77335
777.81081   790.18919   148.00000  17.18387             11.42788
780.20755   2031.39623  159.00000  15.93132             12.90111
782.69154   1013.83085  201.00000  17.14432             14.93110
785.33628   566.86726   226.00000  21.71241             13.61293
786.94340   897.50943   318.00000  23.12867             17.56298
790.25979   221.27402   281.00000  23.30517             15.80521
790.33962   1087.33019  212.00000  17.67772             15.49628
793.21649   871.80928   194.00000  19.42666             12.85264
794.62500   589.34274   248.00000  19.97976             15.97687
794.32716   684.05556   324.00000  20.92199             20.01024
