# Filename: Nuclei_416_ctrl_60x_010.npz
# Voxel size (nm): (108, 108)
# Area quantity: voxels
# Num nuclei detected: 1728
Y           X           AREA       MAJOR_AXIS_LENGTH    MINOR_AXIS_LENGTH
28.75102    773.54286   245.00000  20.85962             15.10946
32.04545    1043.83636  110.00000  13.83017             10.19677
51.94872    264.23077   117.00000  13.65300             11.16392
57.96364    748.44242   165.00000  16.23513             13.22009
57.72611    921.12102   157.00000  15.54479             12.93128
63.39474    469.82895   152.00000  17.02634             11.41493
69.55914    786.76344   93.00000   11.95449             9.89456
74.11486    1142.30405  148.00000  13.83010             13.67223
77.15385    459.38462   130.00000  13.22158             12.59724
78.28188    1298.21477  149.00000  14.98687             12.81627
82.20000    1035.58182  110.00000  15.61991             10.01083
88.70936    702.11330   203.00000  17.22728             15.04243
88.11806    872.09722   144.00000  15.67266             11.83658
93.49275    1577.78261  138.00000  18.26351             9.95674
98.70616    654.30806   211.00000  17.58766             15.54208
105.76730   1101.55346  159.00000  17.28358             11.75487
105.20000   406.21600   125.00000  15.55814             10.61384
109.77206   912.97794   136.00000  16.00579             10.93990
111.72766   795.84681   235.00000  19.71346             15.24872
117.74405   610.50000   168.00000  17.65399             12.20276
118.81034   727.93966   232.00000  19.27859             15.38849
119.21678   437.49650   143.00000  14.43198             12.84444
119.13103   1470.51724  145.00000  15.30721             12.11110
121.82915   647.57286   199.00000  16.81432             15.19201
125.76389   700.36806   144.00000  15.54752             11.82247
127.41441   687.58559   111.00000  13.10823             10.88405
133.75455   428.92727   110.00000  15.16305             9.30380
136.75214   444.06838   117.00000  14.04069             10.62603
142.95694   1118.85167  209.00000  19.31411             14.04911
145.56853   1023.21827  197.00000  21.77952             11.59568
141.00000   690.52941   68.00000   10.62794             8.12969
146.19231   401.28365   208.00000  20.01341             13.26534
147.11940   860.22886   201.00000  18.86729             13.64999
148.87879   576.66667   198.00000  18.76252             13.53990
149.86538   1039.18590  156.00000  19.47488             10.26765
149.66897   421.97931   145.00000  15.47994             12.01110
150.89000   810.42000   200.00000  17.90565             14.30146
152.75758   1303.21591  264.00000  20.06555             16.79799
153.02020   708.28788   198.00000  20.37693             12.55346
154.55399   438.63850   213.00000  19.40754             14.02240
164.58571   1380.62857  280.00000  21.96005             16.31834
166.60000   320.27647   170.00000  14.99039             14.44582
173.96059   587.82266   203.00000  23.12146             11.24572
173.18286   404.38286   175.00000  15.92417             14.07239
174.62326   680.38605   215.00000  20.66877             13.41701
175.98283   1350.06867  233.00000  20.31974             14.69833
176.95714   812.57619   210.00000  20.29206             13.21311
174.52096   1444.88623  167.00000  15.88640             13.48611
173.07627   1506.53390  118.00000  14.06297             11.27256
180.77037   482.77037   135.00000  15.62018             11.15067
189.81579   178.17293   266.00000  22.97083             14.90560
187.96815   1532.21019  157.00000  16.93513             11.85343
189.01639   1461.04098  122.00000  13.96510             11.11316
193.01685   331.27528   178.00000  15.73525             14.51518
193.25664   644.13274   113.00000  13.64671             10.62505
198.63636   533.09848   132.00000  14.66857             11.76094
199.82249   1442.84024  169.00000  15.94686             13.57091
203.14602   659.80973   226.00000  18.62020             15.52320
202.16111   776.49444   180.00000  18.90927             12.18658
205.01333   616.36000   150.00000  17.25036             11.11764
210.02632   1045.21053  152.00000  19.04292             10.45364
211.71196   502.90217   184.00000  17.18664             13.69576
213.10828   1298.77070  157.00000  16.30165             12.45954
215.82174   701.66957   230.00000  20.39033             14.47024
216.45946   1441.73874  111.00000  12.87432             11.16696
219.49708   1217.08772  171.00000  17.13673             12.77373
218.85496   376.71756   131.00000  14.32986             11.66207
222.78102   1464.70073  137.00000  17.88349             9.84379
226.31973   137.45578   147.00000  15.60769             12.08748
226.93023   661.67442   86.00000   11.37510             10.36073
229.52795   1034.31056  161.00000  16.35475             12.56675
231.04464   509.77679   112.00000  14.66389             9.79059
235.48175   439.40876   137.00000  13.54761             13.05697
236.51049   379.27972   143.00000  15.77724             11.52831
237.35606   721.48485   132.00000  13.77480             12.25901
246.73967   1003.90496  242.00000  20.86257             14.93635
247.90377   645.39331   239.00000  22.11710             13.81987
245.20915   870.52288   153.00000  18.38103             10.70907
251.20312   843.85938   256.00000  22.68975             14.54127
250.10390   374.25325   154.00000  14.85787             13.23781
249.32353   387.97059   136.00000  14.33456             12.10284
253.55500   726.67000   200.00000  17.28419             14.84136
251.61582   1438.72881  177.00000  15.31186             14.73295
255.78443   513.37725   167.00000  17.99122             11.91998
254.65217   1572.76087  138.00000  13.39440             13.14800
256.13816   355.63816   152.00000  16.35921             11.87998
258.90043   481.41991   231.00000  19.10993             15.61563
262.79439   212.84112   214.00000  19.08210             14.32692
260.68841   246.24638   138.00000  14.84341             11.95599
263.50000   711.76800   250.00000  22.88640             14.10105
258.94444   1409.00000  108.00000  14.82560             9.61502
262.27982   445.86239   218.00000  18.49638             15.12874
264.30921   317.47368   152.00000  15.22752             12.79608
264.96407   424.20958   167.00000  15.93768             13.47865
267.72441   350.33071   127.00000  13.90731             11.76273
268.85981   617.67290   107.00000  14.58181             9.78644
273.48134   1026.25373  268.00000  21.47218             16.11338
273.86826   259.28743   167.00000  16.63769             12.82240
279.50000   632.72619   168.00000  17.32171             12.42490
278.62044   463.76642   137.00000  16.15183             10.88757
281.53614   508.40964   166.00000  16.39834             12.97832
281.23077   79.46154    130.00000  14.30771             11.67831
281.71545   351.43089   123.00000  13.31939             11.78337
282.69886   331.08523   176.00000  17.66353             12.75203
286.12346   696.03292   243.00000  19.17640             16.55631
281.92727   303.65455   110.00000  12.74559             10.97068
283.04587   362.42202   109.00000  14.76968             9.48784
287.82143   1336.43367  196.00000  25.12429             10.17528
286.82734   376.27338   139.00000  13.99329             12.74136
287.68987   487.42405   158.00000  15.33828             13.14831
291.32031   1068.72266  256.00000  23.73586             13.77222
294.31507   931.01370   146.00000  20.53651             9.25159
293.16304   365.97826   92.00000   11.27895             10.52555
296.39896   452.26943   193.00000  17.70426             14.00337
309.09426   757.83197   244.00000  25.75655             12.59741
305.45665   230.06358   173.00000  17.37497             12.84157
304.50926   1537.03704  108.00000  13.96728             9.88842
305.38776   326.83673   147.00000  15.30972             12.27151
310.34574   496.56915   188.00000  20.55548             11.69807
311.59278   730.80928   194.00000  17.40637             14.24707
313.97059   1422.67059  170.00000  16.13023             13.46349
316.66047   1080.40930  215.00000  19.16164             14.30140
321.75000   629.65064   312.00000  23.57854             17.04060
321.08122   1283.17259  197.00000  17.17734             14.60935
319.96721   1350.31967  122.00000  13.09861             11.86897
321.49727   519.06011   183.00000  18.40439             13.01687
325.89286   646.22959   196.00000  22.97254             11.08274
325.54822   1337.69036  197.00000  20.51695             12.27109
321.32727   1539.66364  110.00000  13.58291             10.44721
326.27300   842.71513   337.00000  24.48708             18.11287
325.26087   336.45963   161.00000  17.49131             11.76351
330.27660   1386.53191  188.00000  26.18522             9.69251
331.46622   1530.41892  148.00000  14.59756             12.96059
336.43750   1221.26923  208.00000  17.75104             15.16022
333.80172   1612.49138  116.00000  13.69280             10.96772
338.09483   711.93966   232.00000  19.92226             15.01280
339.19214   1040.00000  229.00000  21.41550             13.77422
338.58125   313.25000   160.00000  15.90751             12.81583
338.46243   1173.71676  173.00000  16.51298             13.35263
338.74775   1598.40090  222.00000  18.32730             15.46567
343.68485   108.99394   165.00000  15.35815             13.77277
345.91935   453.03226   124.00000  14.16388             11.13144
348.17788   1104.13462  208.00000  18.99063             14.01175
346.59310   430.38621   145.00000  15.66493             11.89155
348.27333   486.31333   150.00000  17.45717             10.96423
349.09662   385.82126   207.00000  19.05029             14.02072
352.30811   262.60000   185.00000  17.13005             14.16797
351.32432   410.32973   185.00000  17.79749             13.36392
354.19600   793.70400   250.00000  22.24829             14.34507
353.35648   1188.81481  216.00000  19.52463             14.15730
350.02439   148.39024   82.00000   10.92752             9.89194
352.98870   1156.68362  177.00000  16.36868             13.80491
356.73125   1307.93125  160.00000  19.27378             10.82082
354.98742   1360.57233  159.00000  17.84691             11.40089
359.78425   307.39384   292.00000  26.89237             13.97595
358.30476   953.16667   210.00000  18.94374             14.18666
357.27727   1590.51364  220.00000  18.47547             15.37313
359.90845   395.60563   142.00000  15.04524             12.11582
362.78261   1319.72826  184.00000  19.66289             12.11353
363.84270   1398.06742  267.00000  19.20649             17.76137
361.31429   458.37143   105.00000  13.43985             10.05706
366.14552   765.42164   268.00000  21.29236             16.83781
365.36400   870.06400   250.00000  18.32415             17.49492
370.44156   728.95130   308.00000  23.09777             17.06551
370.87550   1333.92771  249.00000  23.05076             13.81205
370.17886   1027.15041  246.00000  18.93378             16.62560
370.19828   1097.42241  232.00000  19.23605             15.60749
370.77848   1422.82911  158.00000  14.98114             13.46855
372.34694   456.19728   147.00000  15.92710             11.79400
371.63889   679.61667   180.00000  16.08066             14.34486
375.73563   161.72414   174.00000  15.76523             14.12489
377.59898   487.12690   197.00000  19.19264             13.10247
376.72917   110.99306   144.00000  15.62608             11.74669
379.88755   812.86747   249.00000  22.69779             14.91468
382.51208   361.97101   207.00000  17.79095             14.86453
386.70098   1310.43137  204.00000  24.36561             10.72779
383.68724   422.25103   243.00000  18.93551             16.56688
385.99228   627.25869   259.00000  18.86822             17.77204
385.09694   1150.37755  196.00000  20.38778             12.69216
386.59565   1256.83913  230.00000  20.12899             14.60442
383.04255   1386.91489  94.00000   11.21727             10.66243
389.73418   702.52743   237.00000  23.42403             13.07408
385.85833   344.10833   120.00000  13.30960             11.50995
387.94340   1103.93711  159.00000  15.38814             13.14348
390.46707   1369.91018  167.00000  19.86683             10.80092
387.76404   1634.44944  89.00000   11.54068             9.86391
392.91188   393.40613   261.00000  22.29076             15.13889
391.14451   1194.41618  173.00000  17.47671             12.67432
388.84211   210.07895   76.00000   10.32638             9.39339
390.22152   1577.81646  158.00000  14.73422             13.80181
390.26168   138.50467   107.00000  13.21285             10.34668
393.31515   479.18182   165.00000  16.57484             12.70667
392.37379   306.85437   206.00000  19.76614             13.32952
392.61039   326.77922   154.00000  15.55894             12.59598
391.68919   452.54054   74.00000   10.62968             8.94004
396.52000   175.04000   150.00000  15.49200             12.56951
398.00575   589.98276   174.00000  16.48232             13.52585
400.52610   882.00402   249.00000  19.35841             16.61288
397.60000   148.08462   130.00000  13.56509             12.31472
402.67453   342.66509   212.00000  21.30745             12.77429
399.17323   377.96063   127.00000  14.11512             11.47707
399.27559   1290.11024  127.00000  13.69973             11.90027
402.13904   496.27807   187.00000  17.62119             13.54693
404.13605   186.56463   147.00000  14.23408             13.18810
408.15226   862.78601   243.00000  21.86165             14.20288
409.73251   1269.46091  243.00000  23.49171             13.30023
410.27937   913.46032   315.00000  26.68625             15.56733
418.72574   1247.25105  474.00000  44.09677             14.56765
410.12054   662.94643   224.00000  19.04260             15.11955
407.35593   676.24576   118.00000  13.60080             11.11227
412.94686   1202.97101  207.00000  20.11009             13.14097
410.71429   137.36264   91.00000   12.25374             9.66791
417.68205   1316.60513  195.00000  26.19195             9.62063
413.05208   1086.67708  192.00000  20.13556             12.30911
417.12077   575.20290   207.00000  18.66127             14.29047
415.27869   395.28415   183.00000  19.11235             12.58015
426.49817   771.69963   273.00000  28.60194             13.87180
418.11184   1124.55921  152.00000  14.86546             13.41342
419.57025   735.47107   121.00000  14.95531             10.62891
419.66250   1004.08750  160.00000  15.76891             13.09185
422.26455   1166.95238  189.00000  18.71074             12.88741
424.23776   708.61538   286.00000  22.69809             16.09459
419.89610   290.20130   154.00000  16.75196             11.79060
419.66667   1047.04762  63.00000   9.31802              8.65540
425.57635   1373.55665  203.00000  19.37649             13.45282
425.34911   174.37278   169.00000  15.30822             14.20953
427.85915   809.81690   213.00000  19.19403             14.14922
425.40157   331.65354   127.00000  14.82090             10.96154
429.20889   1557.99111  225.00000  19.33439             15.09988
428.58333   1155.52778  180.00000  16.95499             13.54024
427.32456   1497.36842  114.00000  13.93168             10.49387
432.49123   444.06433   171.00000  18.45973             12.42197
432.21983   414.74569   232.00000  18.87441             15.68275
433.38528   1127.18615  231.00000  18.32440             16.38885
431.83274   864.50890   281.00000  23.55226             15.24050
429.58889   1041.71111  90.00000   11.27786             10.16166
434.33108   736.87162   148.00000  20.76438             9.50170
432.07602   1009.32164  171.00000  17.41396             12.60606
435.18881   381.80420   143.00000  15.55398             11.77031
439.23853   655.63761   218.00000  20.17344             14.14222
434.57812   1299.54688  128.00000  13.88985             11.77664
438.27419   1616.14516  186.00000  18.01365             13.19460
438.98571   362.77143   140.00000  15.20743             11.72583
442.03636   1340.15455  220.00000  18.13946             15.60455
442.10377   595.12264   212.00000  19.99521             13.60097
440.33333   235.41667   96.00000   12.17044             10.06602
442.59494   304.33544   158.00000  15.36975             13.19967
446.98416   681.18552   442.00000  29.98526             19.27520
448.95219   562.55777   251.00000  20.47950             15.80327
447.24691   987.09259   162.00000  18.72058             11.31949
446.09467   1100.23669  169.00000  15.15390             14.29839
446.25424   1519.13559  177.00000  16.25773             13.93556
451.68601   1001.69283  293.00000  25.20634             15.39903
447.88462   1447.04487  156.00000  15.49057             12.80633
447.37241   956.20690   145.00000  19.05389             10.00710
452.05000   620.55000   240.00000  22.19145             13.94249
453.59155   1122.76526  213.00000  22.02095             12.41595
452.01887   173.19497   159.00000  15.65323             12.93614
451.44366   893.59155   142.00000  14.07374             12.92006
456.48661   1219.10268  224.00000  21.72668             13.13098
454.32515   323.51534   163.00000  18.15884             11.49965
452.12329   381.45890   146.00000  16.48626             11.38077
458.43807   790.20242   331.00000  24.59184             17.80998
455.32804   1038.30159  189.00000  17.81462             13.58072
453.95122   1585.96748  123.00000  13.52029             11.69985
461.49730   813.37838   185.00000  18.25713             13.86800
461.06704   903.87709   179.00000  16.03769             15.28276
458.42857   977.45865   133.00000  15.70850             10.88243
459.88372   954.56589   129.00000  18.48771             9.08339
464.11765   1603.26144  153.00000  15.66373             12.57965
464.64384   1654.50685  146.00000  15.61678             11.94753
471.78598   1287.50554  271.00000  23.60284             14.65480
470.44231   737.34615   156.00000  15.75849             12.74029
471.98718   1084.10897  156.00000  17.54958             11.36003
475.25328   675.27074   229.00000  21.44801             13.64435
472.25907   1033.83420  193.00000  17.30474             14.22710
472.59639   642.96386   166.00000  14.75846             14.32140
473.13575   1680.61991  221.00000  18.80953             14.97910
471.50485   1823.68932  103.00000  11.90334             11.22881
475.69811   575.59906   212.00000  18.81593             14.42895
477.07595   726.11709   316.00000  28.24016             14.49240
475.22321   1119.06696  224.00000  21.18821             13.48457
478.75573   328.87023   262.00000  20.30205             16.60059
478.28796   619.77487   191.00000  16.76546             14.54390
477.43558   849.27607   163.00000  20.56318             10.27201
479.17877   1227.89385  179.00000  17.31616             13.18438
477.63054   1327.76847  203.00000  18.76909             13.92414
480.60870   1163.16206  253.00000  19.72521             16.37163
481.52358   792.27358   212.00000  17.95849             15.08664
481.22959   1496.68878  196.00000  17.94714             13.91801
480.08772   1851.89474  114.00000  13.33189             11.21070
485.32394   757.60211   284.00000  25.50817             14.34170
481.62162   163.66216   148.00000  16.30355             11.61181
483.16854   1408.47191  178.00000  16.09744             14.08325
483.88387   186.39355   155.00000  14.84076             13.39137
484.07263   975.45251   179.00000  15.91196             14.36269
489.21756   884.40840   262.00000  20.41407             16.70923
485.67416   947.24719   267.00000  21.43612             15.87650
483.22857   635.37143   35.00000   7.21313              6.14227
489.28700   853.72646   223.00000  17.95385             16.06114
488.30131   1026.09607  229.00000  17.44479             16.72695
489.29891   652.56522   184.00000  17.34115             13.62718
488.94764   1363.16230  191.00000  18.25208             13.48446
490.69399   805.25137   183.00000  16.19846             14.61256
492.32258   1059.67281  217.00000  20.12795             13.86319
