# Filename: Nuclei_416_bidi_60x_009.npz
# Voxel size (nm): (108, 108)
# Area quantity: voxels
# Num nuclei detected: 788
Y           X           AREA       MAJOR_AXIS_LENGTH    MINOR_AXIS_LENGTH
34.50758    762.52273   132.00000  16.19221             11.15660
42.75610    1032.38415  164.00000  20.40583             10.83338
106.23171   707.08943   246.00000  24.03572             13.16177
117.50000   445.81646   158.00000  15.16621             13.59743
136.47761   892.56716   201.00000  17.90506             14.36986
138.57778   963.71111   90.00000   13.39429             8.71555
148.96970   916.92803   264.00000  21.07690             16.14236
149.32800   877.27200   125.00000  13.80349             11.56956
166.87069   1044.11207  116.00000  13.43793             10.98847
165.50000   660.06897   58.00000   9.21355              7.97410
176.38220   916.05236   191.00000  16.95898             14.37061
176.09524   677.55556   63.00000   10.37041             7.73406
180.08871   871.31452   124.00000  13.80461             11.81504
191.05607   928.77570   107.00000  12.46095             11.04537
199.01020   556.81633   196.00000  21.01117             12.18017
199.63542   1005.91667  192.00000  17.70267             14.10830
201.51596   645.51596   188.00000  18.32693             13.12900
200.29907   1034.27103  107.00000  13.17618             10.62208
204.38095   536.95238   63.00000   10.79605             7.48807
209.89474   376.36842   57.00000   9.01583              8.05338
215.30159   508.00529   189.00000  19.91665             12.33434
214.47244   442.65354   254.00000  21.07409             15.42767
223.90345   490.51034   145.00000  16.71153             11.22534
241.46829   620.78049   205.00000  18.26672             14.38965
240.38636   458.34091   88.00000   13.28694             8.63029
253.35802   426.60494   162.00000  15.19294             13.67287
260.67647   493.86765   68.00000   10.53496             8.63649
275.19277   615.81928   166.00000  17.05621             12.58866
273.73643   1408.37209  129.00000  15.99820             10.36178
288.11915   530.83404   235.00000  18.17394             16.54400
288.16541   299.72932   133.00000  16.27995             10.63120
290.70833   284.46667   120.00000  13.70658             11.71683
305.00000   489.88889   81.00000   11.44908             9.17753
317.26344   444.69355   186.00000  16.87530             14.31176
321.73640   402.18410   239.00000  20.80614             14.85871
324.40909   238.38182   220.00000  19.11078             14.77911
321.48734   466.99367   158.00000  15.09069             13.50722
346.95964   1355.32287  223.00000  21.03148             14.17511
347.42169   1403.44578  166.00000  17.55197             12.05310
349.50562   1389.83708  178.00000  17.20131             13.22934
357.04854   392.96602   206.00000  18.02649             14.74307
366.94979   1137.15063  239.00000  18.34100             16.63412
370.38655   1338.41176  238.00000  22.73375             13.65687
377.14103   460.21368   234.00000  27.97608             10.76635
391.33824   1333.55882  204.00000  19.88015             13.11456
394.62553   452.45957   235.00000  21.75043             13.93733
401.42966   1144.11027  263.00000  25.24054             13.32864
401.79204   467.26549   226.00000  19.15534             15.16038
407.10465   1304.70349  172.00000  17.66708             12.46630
413.36420   1386.54321  162.00000  17.58369             11.84760
420.72189   1155.57988  169.00000  17.21583             12.55345
423.38397   1069.75527  237.00000  21.13155             14.56765
424.14535   1274.78488  172.00000  16.52249             13.32155
424.00000   1299.67647  136.00000  13.74469             12.67686
428.72656   1365.46094  128.00000  16.56857             9.91901
432.77305   422.46809   141.00000  16.38674             11.04711
442.28400   1081.96000  250.00000  20.64301             15.67285
441.92040   1166.09950  201.00000  16.24189             15.84191
448.49432   1255.74432  176.00000  16.50953             13.69564
452.38095   1314.82540  63.00000   10.13996             7.92164
467.84409   446.51075   186.00000  19.35962             12.38092
470.85668   1172.69055  307.00000  23.12666             17.38172
470.91403   1324.99095  221.00000  20.41303             13.92363
470.78613   1114.26590  173.00000  19.24021             11.50108
473.60142   1249.87189  281.00000  25.42762             14.73557
472.26347   1309.04790  167.00000  17.61735             12.54464
481.07519   970.63158   133.00000  13.63927             12.47590
490.00662   1323.94040  151.00000  18.51246             10.69317
488.98077   1201.65385  156.00000  16.11375             12.38955
500.35593   1133.08898  236.00000  25.06136             12.08214
509.24412   1281.85294  340.00000  31.09382             14.63653
512.91549   1227.40845  213.00000  22.54028             12.26420
540.64583   457.43452   336.00000  27.02675             15.96732
536.93902   1160.90244  164.00000  16.60122             12.59858
546.66047   1189.20465  215.00000  18.40405             15.07515
554.75333   1272.38000  150.00000  17.17281             11.16411
560.54497   1288.47619  189.00000  18.73521             12.90004
567.39873   1167.14557  158.00000  21.02278             10.18911
567.41722   1177.39735  151.00000  15.99570             12.24116
570.50251   1270.94472  199.00000  20.17655             12.70909
580.12000   465.00364   275.00000  27.50848             13.51195
579.53614   1191.33735  166.00000  17.75227             12.02721
591.19444   1013.98413  252.00000  31.82023             10.94318
594.57143   1178.63910  133.00000  15.06063             11.35503
599.36396   1136.12367  283.00000  25.72391             14.14316
601.52326   1274.81977  172.00000  16.13363             13.60629
609.03097   1171.85398  226.00000  18.20202             16.13036
620.33798   1045.55052  287.00000  25.13465             15.08019
625.89474   1319.92544  228.00000  19.02922             15.46728
625.04902   1367.25980  204.00000  17.50361             15.00442
635.46711   1192.52632  152.00000  19.03548             10.19499
638.73510   1087.16556  151.00000  14.17488             13.68720
646.57463   1287.94030  268.00000  24.36341             14.28945
645.48207   1210.25498  251.00000  21.10398             15.35239
660.43062   1400.76316  418.00000  28.39446             19.20415
658.67179   1228.92308  195.00000  19.30464             13.01655
662.48864   1303.40341  176.00000  15.99356             14.01493
665.76289   1136.76289  194.00000  17.96777             13.83181
663.96063   1284.88976  127.00000  17.68952             9.29289
669.06061   1093.29004  231.00000  19.24766             15.48081
668.36306   1184.67516  157.00000  15.19571             13.38861
671.06140   1279.23684  114.00000  13.64036             10.78987
670.96503   1423.27273  143.00000  14.06739             13.00041
675.63298   1231.09043  188.00000  19.09883             12.55167
682.44509   1309.01734  173.00000  15.51925             14.25618
683.57005   1262.25604  207.00000  17.75994             14.94977
686.87500   1098.89286  168.00000  17.94491             11.93330
693.50211   1162.70886  237.00000  27.23700             12.03496
691.60920   1379.93103  261.00000  20.55996             16.19689
693.28641   1277.79126  206.00000  21.75874             12.13692
695.85000   1410.94500  200.00000  19.01791             13.53774
697.81505   1361.36050  319.00000  24.93681             16.70785
700.42945   1421.73006  163.00000  21.77160             9.66257
701.03814   1238.30932  236.00000  22.57426             13.64071
704.92701   1433.26277  137.00000  15.25236             11.50755
709.82031   1310.71484  256.00000  23.20672             14.22385
714.30417   1326.72917  240.00000  19.10652             16.07132
720.50376   1227.54135  266.00000  20.36515             17.00508
728.98643   1102.61086  221.00000  25.13109             11.37087
731.26966   1167.35955  267.00000  25.71425             13.55011
727.45926   1207.22593  270.00000  21.36440             16.21684
740.29023   1116.23563  348.00000  25.04436             17.90439
744.86131   1217.07664  274.00000  29.47315             12.08293
746.21687   1098.96988  166.00000  16.40232             12.93466
747.74026   1195.38095  231.00000  21.20875             13.96283
750.27562   1261.05654  283.00000  26.11669             14.02930
752.80822   1241.38356  146.00000  16.35400             11.38438
771.45455   762.24242   231.00000  20.73194             14.33373
782.06630   773.88950   181.00000  16.75477             14.06952
792.13289   1127.55814  301.00000  23.63332             16.99482
801.10667   1209.10667  150.00000  16.87869             11.38767
797.37500   872.39583   48.00000   8.95916              7.06940
803.58696   812.47101   138.00000  14.71750             11.96916
806.88192   1145.28413  271.00000  22.31719             15.58409
815.12885   782.04762   357.00000  22.55931             20.30239
813.39394   873.48990   198.00000  24.26337             10.75514
818.87398   1198.79268  246.00000  28.24869             11.54827
821.00358   816.58065   279.00000  22.16550             16.08173
817.93617   1124.10638  94.00000   12.40299             9.73502
820.55319   843.12057   141.00000  15.03501             11.97502
826.29787   1161.52128  188.00000  24.33548             10.73353
824.95475   764.74661   221.00000  23.23933             12.32352
825.28829   1130.25225  111.00000  13.42860             10.64880
827.01639   876.68852   122.00000  16.18787             9.63614
827.20472   1171.11024  127.00000  13.67829             11.92133
828.68687   923.27609   297.00000  31.17784             12.59237
838.39051   757.80292   274.00000  20.16599             17.52979
840.44218   777.18367   147.00000  15.81983             11.81707
848.37438   940.32020   203.00000  21.07112             12.79342
848.25100   899.60159   251.00000  19.44596             16.95401
847.48872   926.71429   133.00000  17.68965             9.68185
854.54817   702.23920   301.00000  25.60513             16.00901
857.83920   1165.79397  199.00000  22.06818             11.71962
856.26946   722.92814   167.00000  16.23809             13.15372
859.96894   551.91925   161.00000  15.72525             13.07600
860.99163   854.41004   239.00000  23.12057             13.31132
860.33898   965.58757   177.00000  16.59835             13.89802
861.82039   1154.16990  206.00000  19.74459             13.45862
867.29592   831.90306   196.00000  19.16838             13.29421
864.44615   1138.72308  130.00000  16.19171             10.59470
865.58156   791.86525   141.00000  16.75264             10.99589
866.59459   841.70270   37.00000   7.13274              6.73828
877.16427   1038.07781  347.00000  32.35057             14.06330
872.11696   965.94152   171.00000  17.95556             12.36257
872.41739   1133.14783  115.00000  12.43517             11.87193
877.16180   571.40053   377.00000  34.83199             14.14144
876.11258   797.52980   151.00000  18.47076             10.56256
876.07107   734.58376   197.00000  19.46449             13.30648
877.80263   905.92105   152.00000  18.82624             10.33172
884.33856   759.19749   319.00000  26.90509             16.00557
883.71770   1126.90909  209.00000  18.36963             14.65067
882.86391   976.14201   169.00000  16.36909             13.56037
883.76984   788.30952   126.00000  13.92769             11.56710
885.72381   833.27143   210.00000  17.80495             15.12027
885.37037   616.71111   135.00000  16.49152             10.69145
889.37209   607.98837   172.00000  20.25653             11.25249
887.90123   1166.43827  162.00000  19.07028             11.40106
889.61215   860.00935   214.00000  19.36510             14.06810
895.15129   1008.33210  271.00000  22.51080             15.61542
896.12605   905.57983   238.00000  19.17794             16.06557
895.20144   1148.10072  139.00000  15.17959             11.68989
898.74138   1172.53448  174.00000  18.82521             11.87165
896.14615   755.59231   130.00000  15.23770             11.23232
902.14545   654.87636   275.00000  25.22378             14.03293
901.49390   871.15244   164.00000  15.26504             13.85540
902.16749   1077.29064  203.00000  19.79851             13.14684
906.48855   891.56489   131.00000  15.89998             10.65234
910.48913   743.71739   184.00000  20.62501             11.47884
909.53804   774.77717   184.00000  15.68282             15.10878
914.23464   701.57263   358.00000  22.46081             20.64435
911.52903   1034.36129  155.00000  16.12781             12.27894
917.76351   903.27365   296.00000  21.76625             18.01433
917.51955   1188.36872  179.00000  18.24500             12.95718
917.54412   734.54412   136.00000  14.52706             11.90980
919.48718   916.15385   78.00000   12.22513             8.29029
926.60190   929.35545   211.00000  18.81774             14.66753
928.01081   955.46486   185.00000  16.82437             14.03355
929.76282   1078.98077  156.00000  15.05864             13.21317
936.17296   692.07862   318.00000  26.24108             16.29710
932.98919   706.70811   185.00000  18.78197             12.59911
934.39300   970.45914   257.00000  19.34027             16.99441
934.75912   919.89781   137.00000  16.91516             10.35258
934.53977   1112.59659  176.00000  18.06607             12.44577
940.96335   896.17277   191.00000  18.69417             13.39601
940.82963   908.41481   135.00000  17.16693             10.18519
942.85437   776.05340   206.00000  17.66308             14.90226
946.85950   679.76860   121.00000  15.60285             9.93899
952.63636   653.59289   253.00000  22.05068             15.12856
948.37086   936.08609   151.00000  18.63993             10.76703
949.19126   668.31694   183.00000  15.96274             14.64045
949.51934   1071.97238  181.00000  16.48441             14.00878
954.98413   928.87302   126.00000  15.95603             10.32181
958.43322   1117.87296  307.00000  23.47224             17.62756
955.91304   797.05072   138.00000  16.34655             10.96459
958.64500   809.13500   200.00000  18.66504             13.80537
958.03205   954.03205   156.00000  16.69911             12.18991
960.53585   1001.11321  265.00000  19.57722             17.45920
960.74874   1043.10553  199.00000  18.10652             14.20209
967.21053   747.71770   209.00000  17.53049             15.29735
965.26582   894.29747   158.00000  14.48957             13.89517
972.03209   956.47594   187.00000  17.01738             14.47210
972.63470   814.34703   219.00000  20.86409             13.54199
973.74653   652.62153   288.00000  24.21169             15.89992
974.87319   794.29348   276.00000  21.48667             17.60741
979.84946   865.86559   372.00000  23.14714             20.74290
982.90182   614.61091   275.00000  22.36281             15.97148
978.39336   1056.85308  211.00000  18.89948             14.33082
985.96703   745.84615   182.00000  16.42240             14.18159
986.38919   1107.43784  185.00000  17.75869             13.29917
990.77113   672.52465   284.00000  26.20716             15.66548
995.69928   779.06444   419.00000  30.69478             19.82482
989.20482   7.90361     83.00000   11.12460             9.80543
996.00000   593.07937   252.00000  21.90445             14.88044
994.57949   898.09744   195.00000  21.42074             12.20829
996.10072   884.25899   139.00000  16.34881             10.93731
997.67949   986.73077   234.00000  19.63820             15.33833
996.00000   948.81967   61.00000   11.10202             7.11696
1001.17483  678.70629   143.00000  13.96768             13.04375
1002.54040  955.44444   198.00000  18.38730             13.83355
1003.82222  872.67407   135.00000  14.49400             12.10755
1008.68254  831.93651   189.00000  19.04832             12.75628
1007.52381  1080.90476  252.00000  28.69118             11.40713
1012.20833  605.57692   312.00000  33.14565             12.68200
1015.65789  856.30526   190.00000  19.75591             12.51624
1015.05946  1036.64865  185.00000  16.55763             14.44495
1014.16814  769.07965   113.00000  12.79505             11.28779
1016.59259  668.68519   162.00000  14.78338             14.05898
1018.54369  719.75405   309.00000  22.81143             17.58565
1023.05704  934.09982   561.00000  35.28659             20.76658
1020.83146  1072.03371  178.00000  16.46250             13.92019
1021.27338  740.60432   139.00000  16.50698             10.85509
1022.12903  821.37097   124.00000  14.65802             10.88191
1023.94652  557.44385   187.00000  17.35322             13.74518
1025.35938  752.35417   192.00000  16.45499             15.12426
1025.02027  801.10811   148.00000  15.53314             12.25576
1024.86184  903.49342   152.00000  14.58537             13.40514
1026.45395  812.52632   152.00000  16.48975             12.10658
1026.65185  1023.51852  135.00000  14.41455             11.92174
1029.56332  593.93450   229.00000  19.13349             15.44152
1032.38776  571.72653   245.00000  21.34471             14.68141
1033.94805  841.29870   231.00000  21.65244             14.00324
1034.63801  629.14932   221.00000  21.82679             13.21103
1037.77725  873.91469   211.00000  20.81027             13.18312
1035.77103  540.11682   214.00000  21.30598             12.84952
1038.83744  717.20690   203.00000  17.24211             15.12138
1037.93333  905.42745   255.00000  23.89731             14.07801
1043.41339  1050.39764  254.00000  21.75774             15.06149
1042.31655  611.31655   139.00000  14.62365             12.15872
1045.67000  1008.37667  300.00000  24.59960             15.92715
1048.45695  664.03311   302.00000  23.81751             16.44629
1054.09841  701.95873   315.00000  28.29024             14.94244
1048.75401  728.49198   187.00000  16.67135             14.49343
1049.12281  808.57456   228.00000  20.97375             14.20093
1048.25490  630.32026   153.00000  15.45305             12.79245
1051.26712  784.15068   292.00000  24.39819             15.25101
1050.72143  649.02143   140.00000  16.40681             10.96340
1052.31930  849.71930   285.00000  26.03761             14.39177
1061.94265  896.63082   279.00000  24.32543             14.98927
1059.21898  912.10219   137.00000  16.28126             10.99041
1060.06475  944.93525   139.00000  14.48599             12.39083
1066.64953  993.03271   214.00000  18.98615             14.40183
1069.80383  559.64115   209.00000  17.42726             15.33508
1069.75648  931.71503   193.00000  22.38854             11.27920
1068.01471  971.22059   136.00000  13.72771             12.60965
1070.86222  1067.68444  225.00000  19.04792             15.13934
1069.46552  655.47414   116.00000  15.01853             10.03787
1074.07571  735.42902   317.00000  22.55921             18.30812
1075.83190  905.93534   232.00000  24.62586             12.16892
1070.29851  620.77612   67.00000   10.22469             8.34899
1073.60140  593.92308   143.00000  17.92256             10.44758
1075.16406  644.38281   128.00000  16.21437             10.04085
1077.35906  869.11409   298.00000  20.14467             19.25391
1078.70588  1118.81765  340.00000  30.92206             14.39051
1075.14198  543.24691   162.00000  17.46535             11.85653
1077.90583  675.62780   223.00000  17.36724             16.75631
1077.59563  1045.66120  183.00000  16.36730             14.48903
1083.47333  526.59333   300.00000  27.77916             14.51463
1079.90000  612.88235   170.00000  16.67008             13.15375
1084.74684  601.07173   237.00000  21.23759             14.69724
1082.48276  815.84236   203.00000  18.35020             14.41779
1087.39231  559.26154   260.00000  25.18399             13.65940
1086.40722  784.92268   194.00000  18.26877             13.59798
1086.68724  1011.61728  243.00000  22.33057             14.06938
1083.85714  587.95238   63.00000   9.49544              8.51595
1086.77727  831.79091   220.00000  22.34384             12.64284
