# Filename: Nuclei_bidi_pfa_005.npz
# Voxel size (nm): (108, 108)
# Area quantity: voxels
# Num nuclei detected: 834
Y           X           AREA       MAJOR_AXIS_LENGTH    MINOR_AXIS_LENGTH
5.88489     765.31655   139.00000  14.90482             12.01568
12.49466    1069.01779  281.00000  21.10425             17.29789
21.30196    686.27059   255.00000  22.03612             14.96448
42.12766    615.14362   188.00000  18.66042             12.91074
49.52604    636.09896   192.00000  17.50988             14.18873
56.18431    1095.36078  255.00000  19.66647             16.69659
73.52074    656.29954   217.00000  19.88599             14.11045
70.34483    527.14943   87.00000   12.10537             9.70272
80.24186    359.06047   215.00000  18.65591             14.80869
82.58962    426.36792   212.00000  22.63303             12.07910
91.77931    1111.37241  145.00000  15.40045             12.00202
97.37008    593.99213   254.00000  19.67210             16.53002
96.69636    1014.95547  247.00000  18.49912             17.09181
98.47917    638.76042   96.00000   11.93533             10.30158
106.29181   1095.73310  281.00000  24.77194             14.72470
106.38095   339.81429   210.00000  18.18797             14.95008
112.63235   862.36765   204.00000  18.67079             13.95855
117.57789   636.06533   199.00000  21.62050             11.90527
122.46988   392.22892   83.00000   12.50518             8.64961
130.58642   1103.73457  162.00000  16.65722             12.44272
131.88344   1012.19632  163.00000  19.24180             11.88333
134.54378   611.52074   217.00000  17.39643             15.94806
138.06786   886.29643   280.00000  22.68495             15.78152
137.67593   629.03704   216.00000  18.77040             14.66311
141.07143   367.77922   308.00000  24.65574             16.03443
140.92891   333.12322   211.00000  19.79839             13.82229
139.98701   453.61039   77.00000   11.20786             9.03409
145.19780   591.65934   273.00000  21.71922             16.06550
150.49500   1098.04500  200.00000  17.11979             14.96395
156.31336   525.33641   217.00000  17.71351             15.70148
158.04721   493.91416   233.00000  17.94176             16.58790
161.83333   976.41667   300.00000  20.29407             18.85865
162.86411   356.82578   287.00000  22.67869             16.32991
162.25796   648.78344   314.00000  22.89240             17.79239
164.78037   465.49065   214.00000  21.00573             13.09224
170.70242   920.87197   289.00000  23.65953             15.67801
172.65179   943.85268   224.00000  19.97915             14.32443
171.53642   1000.00331  302.00000  25.54672             15.47758
175.56459   536.34450   209.00000  18.81305             14.15526
179.91931   580.98559   347.00000  24.38974             18.20999
179.30233   434.47287   129.00000  13.73138             11.94911
181.09137   411.20305   197.00000  17.60168             14.36178
187.44598   517.89751   361.00000  24.21710             19.24932
187.44670   613.20812   197.00000  17.25210             14.67766
193.12000   912.28500   200.00000  22.11511             12.00799
191.36596   994.91915   235.00000  20.46471             14.68374
191.77128   1101.66489  188.00000  16.97244             14.11896
200.00629   619.16352   159.00000  16.26850             12.57188
205.09962   655.25287   261.00000  21.82529             15.28352
206.48070   506.79298   285.00000  21.05790             17.27424
207.18142   1041.63717  226.00000  18.16395             15.90584
206.83486   1069.56422  218.00000  17.69731             15.80240
210.50183   593.84249   273.00000  20.10384             17.38075
211.33094   903.04317   139.00000  16.27826             10.88059
212.85714   349.68571   245.00000  19.89360             15.80451
215.47009   1000.42308  234.00000  18.96694             15.81979
220.31100   530.94737   209.00000  19.78088             13.70103
221.21341   475.67683   164.00000  16.96165             12.35453
221.87558   549.55300   217.00000  19.07326             14.58587
223.84615   515.43846   130.00000  13.82739             12.08919
227.46486   425.46486   185.00000  17.56101             13.48407
229.44397   1056.93534  232.00000  18.60189             16.08568
232.52439   394.03659   246.00000  21.30493             14.72415
233.42857   574.15510   245.00000  20.69082             15.16746
235.23887   464.88664   247.00000  19.69624             16.15488
235.60996   867.02905   241.00000  19.18776             16.14163
236.37282   961.73519   287.00000  23.49279             15.67097
236.24713   942.64943   174.00000  16.27416             13.68870
237.35075   1002.97015  134.00000  16.48396             10.51925
237.04575   1013.73856  153.00000  16.65799             11.92015
241.13492   541.42857   252.00000  19.42069             16.55928
241.40175   631.96070   229.00000  17.87298             16.39182
246.00000   565.10429   163.00000  16.07162             12.97786
250.45977   505.70115   261.00000  18.79232             17.75911
253.33186   376.80088   226.00000  17.91529             16.16426
260.03927   987.95166   331.00000  30.24050             14.55606
269.30195   954.22078   308.00000  29.88785             13.85678
268.84426   607.81148   244.00000  24.12728             12.96147
266.64767   520.25907   193.00000  16.26978             15.13209
277.98930   392.64706   187.00000  22.54449             10.98551
278.25862   431.33333   174.00000  18.50638             12.09728
289.29155   649.66213   367.00000  42.12126             12.77630
321.04348   621.77295   207.00000  16.91187             15.64995
329.27306   703.49446   271.00000  22.55135             15.43225
330.73358   380.72263   274.00000  24.73512             14.20794
328.91209   662.17949   273.00000  21.23298             16.59983
343.21304   419.81304   230.00000  20.51169             14.34369
338.91667   692.31818   132.00000  13.62837             12.37998
345.58564   46.78453    181.00000  16.90359             14.83667
346.33588   629.86260   262.00000  19.50821             17.31197
356.84979   717.56223   233.00000  19.49174             15.25833
359.64427   583.68775   253.00000  23.01813             14.04748
363.13527   110.89372   207.00000  18.19943             14.60256
382.88814   704.77288   295.00000  20.15843             18.85507
383.77253   590.39485   233.00000  20.76502             14.37086
386.66960   555.64317   227.00000  19.43567             14.92668
389.77228   1653.75743  202.00000  17.20131             14.96951
396.56184   1607.00707  283.00000  23.19624             15.77334
404.55462   1684.76050  238.00000  20.07994             15.16848
413.91406   1567.82812  256.00000  19.89166             16.42729
416.49160   1619.02941  238.00000  18.67523             16.29643
419.91195   60.76101    159.00000  15.97304             12.73732
440.18919   1692.94595  185.00000  16.63421             14.25794
446.84746   1680.23729  177.00000  15.54934             14.56317
456.14554   1543.70423  213.00000  18.23309             14.90420
463.41767   1528.08032  249.00000  20.45803             15.54279
467.81860   1552.26512  215.00000  20.13381             13.65801
472.68571   1688.44082  245.00000  18.33428             17.08554
486.39336   1236.22275  211.00000  17.78574             15.21098
493.03659   430.61382   246.00000  20.24747             15.70841
496.36863   925.08627   255.00000  21.71151             15.03915
496.15789   1246.77990  209.00000  18.75174             14.22855
497.80275   1678.21560  218.00000  17.93407             15.56087
499.84848   1661.32035  231.00000  19.56837             15.11300
502.85818   27.16364    275.00000  21.44465             16.81045
504.82273   1711.28182  220.00000  17.54265             16.00710
509.60221   877.28729   181.00000  17.54220             13.20719
511.81643   986.30918   207.00000  17.86214             14.84074
511.16154   1898.64615  130.00000  14.84338             11.19991
515.85854   968.74146   205.00000  17.50030             15.14350
523.37687   19.20149    268.00000  19.53711             17.48791
525.57812   1655.32031  256.00000  21.08900             15.49645
527.67054   1707.00000  258.00000  19.76171             16.66781
531.52893   881.67355   242.00000  20.17974             15.33382
540.68679   1212.84528  265.00000  20.37585             16.61338
552.45714   449.26122   245.00000  22.41432             14.01820
554.73720   1728.03413  293.00000  25.08639             14.92255
558.74468   1691.03830  235.00000  23.13967             12.98115
567.11511   1116.31295  278.00000  21.42182             16.58430
571.62132   1641.02206  272.00000  25.82554             13.61568
569.66541   1202.39474  266.00000  21.67403             15.64446
576.53774   1846.56604  106.00000  12.91078             10.51201
579.94737   1186.51754  228.00000  19.27604             15.11010
577.97093   1776.22093  172.00000  15.55540             14.12001
580.55102   1684.90816  196.00000  17.29103             14.51343
584.35249   459.31418   261.00000  20.81348             16.07496
585.01875   1818.13750  160.00000  15.21325             13.46658
587.92857   865.05495   182.00000  17.19463             13.58228
591.37500   1641.94565  184.00000  18.30015             12.95236
592.13675   1157.77350  234.00000  17.96108             16.72827
592.21612   1727.87179  273.00000  19.70150             17.71731
598.01835   836.14220   218.00000  20.00524             14.02400
598.06186   1684.98969  194.00000  17.11019             14.71528
599.27551   1711.98980  196.00000  16.62404             15.03657
600.55670   851.77835   194.00000  17.88001             13.91298
603.51538   1845.99231  130.00000  13.62617             12.21788
610.00333   1090.54667  300.00000  22.40447             17.14190
606.66225   1625.45033  151.00000  16.96117             11.42629
610.77733   1751.68016  247.00000  19.02143             16.89974
610.09524   1826.35119  168.00000  15.84542             13.66415
612.43813   1138.44147  299.00000  27.13549             14.16780
617.64167   1255.50833  240.00000  19.95247             15.39188
621.67021   1946.97872  94.00000   13.37569             10.01823
625.03448   477.96552   261.00000  18.97247             17.62899
622.96954   687.07107   197.00000  19.83544             12.93022
624.69643   1690.84821  224.00000  18.96117             15.06850
628.60793   1793.93392  227.00000  17.99286             16.24701
631.01145   1666.99618  262.00000  20.30746             16.50543
632.17293   1120.55639  133.00000  18.55671             9.40598
634.70253   734.10127   158.00000  15.50481             13.20321
636.06931   1238.06931  202.00000  18.04114             14.26438
638.12887   682.82474   194.00000  17.90405             14.13657
636.68862   853.44910   167.00000  16.13145             13.24497
634.72353   1187.41765  170.00000  16.00011             13.77916
636.01399   1556.10490  286.00000  24.74726             15.34984
638.77021   1173.30213  235.00000  18.60377             16.21933
637.69767   1130.23256  172.00000  16.87594             13.23633
641.50622   1587.47718  241.00000  22.58816             13.85905
641.54494   666.32584   178.00000  16.45612             13.87763
645.17910   1526.37313  268.00000  26.23809             13.07787
646.32941   1755.97647  255.00000  25.29222             14.26917
644.02326   717.39535   172.00000  16.26645             13.75061
649.94372   731.62771   231.00000  18.97205             15.62690
652.28840   631.55799   319.00000  21.78944             18.79135
651.80615   1209.89538  325.00000  22.08823             18.84671
651.41038   1135.87264  212.00000  18.15323             15.05827
654.30924   1248.07631  249.00000  20.71210             15.69707
651.75758   1656.56566  198.00000  19.65053             12.98479
654.49345   1189.59389  229.00000  18.08233             16.19251
658.22174   1071.01304  230.00000  18.18493             16.20941
659.96604   976.52830   265.00000  19.11484             17.70053
662.56150   1674.56684  187.00000  19.88569             12.04001
661.50183   916.01465   273.00000  22.01299             15.90482
662.97656   1794.52734  256.00000  18.38476             17.93683
666.34981   587.47529   263.00000  20.87798             16.13340
667.91538   870.34231   260.00000  20.36870             16.30631
664.12308   945.06154   65.00000   12.47691             6.84505
667.76923   1695.59919  247.00000  21.06230             15.26399
667.97309   1662.64574  223.00000  19.01250             15.22988
675.36716   493.35821   335.00000  28.15397             15.56241
675.48355   1567.49342  304.00000  28.56902             13.72344
669.76471   1636.01604  187.00000  16.36420             14.68045
670.94222   1595.05778  225.00000  19.00651             15.13308
681.26923   1062.62637  364.00000  29.28663             16.31554
677.06746   1776.27381  252.00000  18.78634             17.17393
677.09251   1728.85463  227.00000  20.79579             13.94177
679.68881   924.38462   286.00000  21.57468             17.00806
679.65108   1016.93525  278.00000  22.82637             15.59720
678.66436   1146.80623  289.00000  28.31915             13.46724
681.63556   1276.02667  225.00000  19.91034             14.43767
684.11712   973.06306   222.00000  20.95014             13.96577
680.65546   1521.43697  119.00000  13.88833             11.19162
686.18251   420.17110   263.00000  22.15313             15.34328
685.63689   1193.10663  347.00000  27.47361             16.43163
684.75093   1125.47212  269.00000  21.89271             15.69083
687.94737   1536.35088  228.00000  21.49859             13.87437
687.72603   553.27397   146.00000  14.80880             12.74820
689.22152   1596.74051  158.00000  16.34434             12.51885
690.51460   883.24453   274.00000  20.33151             17.33835
693.39394   1523.76768  198.00000  21.12613             12.09878
692.79747   1667.16456  158.00000  17.40192             11.60893
692.17213   960.75410   122.00000  13.71673             11.50552
698.84322   431.50000   236.00000  19.92545             15.29396
699.32993   1297.70068  294.00000  23.18294             16.20118
702.53356   1721.26174  298.00000  25.46347             15.39374
699.79227   1642.41546  207.00000  21.05899             12.52261
704.52174   465.67559   299.00000  26.98686             14.90252
699.14815   922.12963   270.00000  23.08024             15.21650
698.84737   1901.82105  190.00000  19.02891             12.77022
701.27907   1610.99070  215.00000  17.87284             15.33692
704.04255   555.92553   188.00000  16.73547             14.69035
702.04795   1104.12329  146.00000  15.38099             12.13486
704.57225   503.72254   173.00000  17.80732             12.48121
706.59402   699.59402   234.00000  20.72265             15.09961
704.59804   906.06863   204.00000  17.88039             14.63222
707.08333   1157.55864  324.00000  25.18510             16.48686
709.56150   1756.05348  187.00000  17.72956             13.74384
710.94853   750.86029   272.00000  23.09090             15.29273
714.45455   867.24364   275.00000  26.37563             13.34730
712.84375   652.64286   224.00000  18.14106             15.88257
713.34109   709.28682   129.00000  16.59842             10.25626
715.78667   1709.80444  225.00000  21.03144             13.70938
713.99342   1624.11184  152.00000  16.47722             11.71978
713.53271   1645.53271  107.00000  12.32336             11.16518
716.11064   1111.22979  235.00000  18.08480             16.64860
724.97305   1270.70958  334.00000  33.80680             12.76514
715.72109   911.10204   147.00000  18.35941             10.49637
716.93162   1817.07692  117.00000  14.67165             10.61328
720.45098   1244.06373  204.00000  20.14360             12.99527
726.30314   1046.98606  287.00000  28.77250             13.30823
722.15882   1183.64706  170.00000  17.73797             12.44104
721.90643   737.08772   171.00000  15.85100             13.79858
721.38889   1148.83333  90.00000   15.25883             7.61530
727.35233   1657.95337  193.00000  18.04906             13.66070
728.07328   1196.06466  232.00000  19.12790             15.48876
727.41989   1214.73481  181.00000  16.51041             14.13321
729.28415   664.65574   183.00000  18.08123             12.99437
729.54930   1138.92254  142.00000  14.78193             12.25120
732.13208   1671.03302  212.00000  20.25521             13.42189
732.26437   1601.42529  174.00000  20.17789             11.84048
732.13661   1777.12022  183.00000  21.49293             10.92622
731.17450   1618.77181  149.00000  14.69385             12.96376
740.47687   628.87544   281.00000  26.58029             13.58380
736.09821   913.57143   112.00000  13.78573             10.41307
742.22791   1810.04651  215.00000  18.98475             14.53839
744.55849   482.10566   265.00000  20.48827             16.54899
743.27273   1253.01212  165.00000  16.27029             12.90244
744.44330   956.11340   194.00000  17.12023             14.55744
746.26718   532.22137   131.00000  15.71345             10.88809
748.04959   759.92562   121.00000  19.49880             8.13721
751.51515   768.52525   198.00000  22.61371             11.40796
742.87805   1055.26829  41.00000   7.91153              6.67127
753.28163   623.40000   245.00000  22.93365             14.46227
751.61856   444.98969   291.00000  19.86756             18.85908
750.78761   672.64159   226.00000  17.46744             16.66340
747.35714   1142.59524  42.00000   8.40587              6.30292
755.54545   724.34848   264.00000  20.46501             16.43890
758.50588   1195.91176  170.00000  16.42880             13.23249
756.76000   1947.48000  75.00000   10.39807             9.34767
759.64000   1522.36000  200.00000  17.98216             14.38383
762.70370   1687.45926  135.00000  13.95765             12.47891
769.16154   1508.13077  260.00000  20.93882             15.95034
768.25070   1656.51532  359.00000  28.09622             16.42744
767.75325   519.91558   154.00000  15.49115             12.84780
766.19565   1210.13043  46.00000   7.89946              7.43791
775.14760   574.68266   271.00000  22.80137             15.40395
775.21942   959.70144   278.00000  23.82913             15.26331
775.29572   1235.77821  257.00000  25.63623             13.35151
775.34496   825.01163   258.00000  20.34468             16.77767
774.07583   630.98578   211.00000  17.30974             15.68508
781.39623   899.80863   371.00000  22.51148             21.30969
779.92547   536.47205   161.00000  16.45570             12.50056
780.99487   1740.94872  195.00000  20.02690             12.42119
785.17460   1048.17460  252.00000  22.21903             15.01131
783.58952   1701.22271  229.00000  19.85702             14.74943
787.86986   857.42808   292.00000  22.88684             16.48089
787.67956   915.47514   181.00000  20.41042             11.36800
787.11719   1916.08594  128.00000  16.73669             10.21250
793.14894   475.25957   235.00000  20.74544             14.57913
790.61878   664.95580   181.00000  17.41311             13.31707
793.02326   565.75349   215.00000  18.85075             14.56289
789.67708   1832.17708  96.00000   11.39878             10.87341
791.30496   1761.94326  141.00000  16.94441             10.75452
794.81503   924.77457   173.00000  15.94152             14.03047
802.27451   1590.89412  255.00000  26.74316             12.75403
802.55455   890.20455   220.00000  22.11927             12.90746
803.97603   679.08219   292.00000  23.65766             15.80811
803.78125   1443.04018  224.00000  21.50727             13.41386
803.58696   1644.03261  184.00000  18.77788             12.57122
804.76623   584.00000   231.00000  20.30411             14.66608
808.76364   624.82182   275.00000  23.29543             15.14947
804.33577   1796.43796  137.00000  14.79874             11.93201
809.92515   799.41018   334.00000  25.60251             17.01935
809.62681   1458.05435  276.00000  21.72619             16.36587
