# Filename: Nuclei_416_bidi_60x_010.npz
# Voxel size (nm): (108, 108)
# Area quantity: voxels
# Num nuclei detected: 1456
Y           X           AREA       MAJOR_AXIS_LENGTH    MINOR_AXIS_LENGTH
300.70790   553.83505   291.00000  25.35109             15.22804
314.59756   506.64024   164.00000  16.35626             12.82170
328.59804   567.64706   204.00000  19.76472             13.21590
328.96685   1254.64641  181.00000  17.63288             13.11540
330.49754   1352.72906  203.00000  17.12113             15.16470
339.14344   1317.75820  244.00000  18.72788             16.62711
337.46078   1381.94118  102.00000  12.22482             10.68824
343.93469   630.05714   245.00000  20.85193             15.06283
347.32941   651.61176   85.00000   12.72812             8.72387
349.97368   527.36184   152.00000  15.13915             12.79659
372.12766   934.88511   235.00000  19.76177             15.25990
375.17742   563.24194   186.00000  18.62942             12.75320
381.29032   972.37788   217.00000  18.54407             15.02519
382.29344   812.52896   259.00000  21.01139             15.73880
384.41202   632.72961   233.00000  19.94582             14.97335
390.13441   557.15054   186.00000  16.78201             14.14946
393.05978   581.51630   184.00000  17.33673             13.58332
394.46729   900.41121   107.00000  12.40470             11.00207
398.94359   1483.41026  195.00000  17.26415             14.40531
401.60123   970.42331   163.00000  18.11261             11.63322
401.05446   1529.09901  202.00000  19.39648             13.33973
409.90076   788.80153   262.00000  19.20131             17.53303
410.17514   1429.03390  177.00000  17.79410             12.74398
417.51575   930.46850   254.00000  19.56573             16.59419
416.95455   989.87013   154.00000  17.24194             11.49012
414.44828   738.34483   29.00000   7.92033              4.81510
422.37828   896.97753   267.00000  24.93263             13.64529
422.75472   980.57547   212.00000  21.39649             12.78873
428.97087   700.24272   206.00000  21.38278             12.66427
428.66298   597.23204   181.00000  16.41486             14.07343
429.95455   826.26818   220.00000  17.20407             16.38846
431.30992   845.69835   242.00000  21.62376             14.59193
429.57738   541.87500   168.00000  17.07084             12.75231
430.72189   620.97633   169.00000  17.60976             12.33983
432.95038   770.25573   262.00000  20.24980             16.66111
442.24561   1432.15789  171.00000  19.86388             11.49183
437.96552   794.62069   58.00000   9.30189              8.13562
444.01775   580.27811   169.00000  16.23491             13.44334
446.66480   988.72067   179.00000  21.97798             10.44273
449.12664   703.68559   229.00000  17.50222             16.66390
453.02016   794.73790   248.00000  19.72332             16.17090
454.47303   763.98340   241.00000  19.21829             16.10502
456.53403   688.25131   191.00000  18.76010             13.18151
462.80672   956.12605   238.00000  17.92519             17.04923
467.42985   716.05672   335.00000  24.12831             18.79566
469.91111   767.46667   225.00000  20.44816             14.30663
470.16000   627.41500   200.00000  19.55498             13.13764
474.39024   943.25000   164.00000  16.56150             12.73509
477.88321   879.34672   274.00000  19.71374             17.84444
481.27925   1096.46415  265.00000  21.01482             16.30441
481.46154   899.83566   286.00000  22.75061             16.44559
483.75824   962.35165   273.00000  23.15951             15.66049
480.58491   929.47170   53.00000   10.58848             6.32912
483.94410   787.47826   161.00000  14.82333             13.96224
484.52304   813.39295   369.00000  27.91996             17.33246
490.37870   663.75148   169.00000  15.17326             14.22572
493.39700   738.81648   267.00000  21.56144             16.26371
506.83636   1451.99394  165.00000  19.26335             11.41120
508.40201   1007.37186  199.00000  19.11198             13.48978
513.03704   687.50617   81.00000   12.57128             8.23210
519.01230   1440.99180  244.00000  24.05909             12.96057
520.73364   1407.80841  214.00000  22.23446             12.32200
530.21147   1017.14695  279.00000  22.73231             15.78082
527.57669   995.71166   163.00000  16.08530             12.99120
531.25105   691.70293   239.00000  20.03154             15.23481
534.76025   1083.81073  317.00000  24.81990             16.93094
538.07692   1389.57895  247.00000  26.69427             12.21993
532.86087   728.27826   115.00000  12.88915             11.42877
545.30570   986.05181   193.00000  19.65709             12.58828
542.32203   1321.62712  177.00000  18.99889             12.17923
542.58015   748.88550   131.00000  14.28756             11.67415
546.51600   1050.50000  250.00000  20.99586             15.29869
545.35463   1189.25879  313.00000  25.73791             15.82765
547.24000   1457.54000  200.00000  19.81091             13.08513
551.25581   1149.28682  258.00000  21.06752             15.91638
552.35740   859.93141   277.00000  27.24468             13.10821
547.50000   1104.50000  32.00000   6.32456              6.32456
556.61429   1124.35000  280.00000  20.20475             17.83414
557.55118   789.07874   127.00000  15.03207             10.81875
561.01824   1006.85410  329.00000  24.77234             17.03110
558.41463   1176.29268  82.00000   12.85646             8.42499
563.93711   781.77987   159.00000  18.58839             11.12979
562.27848   945.66456   158.00000  15.86614             12.76503
565.47718   1105.32780  241.00000  22.58404             13.64096
569.42273   635.60455   220.00000  19.88082             14.51178
572.47980   888.01010   198.00000  18.37419             13.82565
575.97510   954.20332   241.00000  23.26613             13.40184
572.36842   1122.88995  209.00000  17.36065             15.37578
577.20455   820.77273   220.00000  20.10092             14.38885
580.71739   1088.15217  138.00000  16.14521             11.14605
589.71552   903.78161   348.00000  30.25958             15.62347
586.53043   868.25217   230.00000  20.98322             14.01468
591.06826   1214.04437  293.00000  25.41535             14.76881
593.22989   722.36207   174.00000  16.09487             13.85601
594.14523   1086.44398  241.00000  19.51258             15.81743
591.61404   1142.75439  57.00000   8.88624              8.18654
595.72956   1411.91824  159.00000  17.13390             12.08752
598.26728   810.69585   217.00000  20.69941             13.56428
596.14563   1114.57767  206.00000  18.05397             14.67139
602.57895   1046.38346  266.00000  20.65412             16.84538
610.24812   840.45865   399.00000  27.96397             19.51676
603.40206   1425.30928  97.00000   12.56362             9.80728
605.67568   868.58108   222.00000  21.13483             13.55400
604.64679   968.88532   218.00000  21.07624             13.36462
615.30992   553.48760   242.00000  18.43423             16.85804
613.31667   1433.08333  120.00000  13.43678             11.41362
621.79832   964.98319   238.00000  22.77806             13.47891
619.08418   1180.59933  297.00000  26.75913             14.25976
621.15060   976.58434   166.00000  17.78841             11.94615
619.06019   1051.02778  216.00000  21.82712             12.71434
622.32237   1478.61184  152.00000  17.26120             11.21459
626.46111   1081.55556  180.00000  17.82550             12.94262
629.22581   573.10599   217.00000  21.10546             13.12180
628.06154   746.67692   195.00000  21.16641             11.85797
631.55234   999.93764   449.00000  37.32632             16.14309
633.36593   1120.88013  317.00000  24.79403             16.50524
631.57823   1157.21088  294.00000  23.58698             16.15532
632.39459   826.82703   185.00000  18.47351             13.06191
642.36596   933.07660   235.00000  19.50748             15.97432
641.00455   1085.82727  220.00000  18.28879             15.72800
643.38057   1035.59514  247.00000  24.39759             13.28037
644.17472   1184.49814  269.00000  22.08798             15.51605
646.69355   839.67204   186.00000  20.79371             12.24878
645.08671   1071.41040  173.00000  17.30609             12.79887
648.95055   998.69231   182.00000  17.33042             13.44722
650.02290   1227.30153  262.00000  22.11034             15.16896
653.39901   820.40887   203.00000  19.97080             13.08871
656.56311   1156.08252  206.00000  17.35685             15.20744
659.98431   728.79608   255.00000  25.23059             13.03941
657.01042   802.00000   96.00000   11.73301             10.41640
664.69697   986.35859   198.00000  18.49216             14.05215
664.02222   1015.03556  225.00000  18.03126             16.11628
665.36224   628.92857   196.00000  20.98087             12.32177
667.22778   1461.42778  180.00000  19.24693             12.00083
664.78226   1250.31048  248.00000  24.89432             12.77489
672.60068   878.56997   293.00000  21.49232             18.37522
672.16187   945.79856   278.00000  26.24098             13.93552
675.05882   1119.72353  170.00000  19.18644             11.50406
674.02488   1142.19900  201.00000  17.81659             14.42825
673.84211   1168.54251  247.00000  20.23282             15.71517
674.96970   924.25253   198.00000  18.35092             13.80919
673.70312   771.03125   192.00000  19.56619             12.79928
679.13964   1003.90991  222.00000  21.75192             13.23923
685.67873   1043.70588  221.00000  27.39210             10.49776
679.49265   811.42647   136.00000  13.92496             12.72824
680.30286   901.07429   175.00000  16.92825             13.18240
686.21296   953.00000   216.00000  18.41351             15.13625
682.56923   1057.64615  130.00000  16.73671             10.04387
686.35811   773.95270   148.00000  14.92440             12.70184
689.80335   458.68619   239.00000  18.66339             16.40932
689.02703   991.31892   185.00000  16.51035             14.46475
692.00000   550.10776   232.00000  23.04137             14.83748
688.05344   1021.66412  131.00000  14.65232             11.43221
690.65517   748.70345   145.00000  15.44721             12.00711
690.03125   764.65625   96.00000   12.81063             9.74584
692.24551   841.78443   167.00000  19.84490             10.82325
690.18103   977.12931   116.00000  13.73118             10.84883
691.39759   1071.06024  166.00000  16.55953             12.79361
694.25000   829.87097   124.00000  14.81826             10.72491
701.53875   702.03321   271.00000  22.54671             15.86251
699.74528   986.33962   106.00000  13.86337             9.80271
702.33146   719.51124   178.00000  17.79416             13.14189
702.63265   581.77551   245.00000  26.14128             12.21185
704.77358   742.66038   159.00000  15.61436             13.01248
702.72500   975.43333   120.00000  12.52532             12.35457
705.87624   485.22772   202.00000  17.50453             15.01161
705.60274   796.76712   73.00000   12.03753             7.85352
710.22680   621.01031   194.00000  18.42485             13.97454
712.46429   908.31696   224.00000  19.86207             14.47458
710.36782   727.40230   87.00000   12.20294             9.56470
711.06087   804.13913   115.00000  14.03251             10.89425
712.43220   649.37288   236.00000  22.13576             13.83614
714.61268   1088.73239  142.00000  16.03734             11.35799
718.91626   932.63054   203.00000  19.74399             13.36111
720.32143   1030.97768  224.00000  21.47388             13.37364
728.73103   1053.58276  290.00000  25.59026             14.74785
724.17413   483.31841   201.00000  19.55865             13.27207
725.44361   796.13534   133.00000  15.21767             11.17140
732.17029   839.36232   276.00000  22.57475             16.77443
729.62176   883.48705   193.00000  18.92970             13.00844
732.21231   1016.32615  325.00000  21.14528             19.92675
730.25767   709.82822   163.00000  14.46313             14.41651
734.49686   1091.69811  318.00000  21.71092             19.11521
732.78481   974.75105   237.00000  21.79526             13.90967
736.48770   1116.59426  244.00000  22.89984             13.79630
737.29870   938.25108   231.00000  21.68976             14.30833
738.26471   776.82941   170.00000  15.44148             14.29018
737.56209   1074.83660  153.00000  14.40936             13.58629
738.12302   1183.88889  252.00000  24.32846             13.27143
737.37104   1239.47059  221.00000  20.54855             13.73150
737.95283   952.46226   106.00000  13.47242             10.12104
740.19231   1204.68132  182.00000  16.67329             13.94354
743.76522   912.70435   230.00000  19.54227             15.20046
743.52459   1451.22131  122.00000  15.10927             10.28600
745.31667   720.45000   180.00000  17.78484             12.96532
743.72566   860.92920   113.00000  14.31395             10.13117
744.82270   676.51773   141.00000  15.25692             11.79714
747.66667   581.45355   183.00000  18.66323             12.69794
747.93233   768.28571   133.00000  14.30296             11.90946
749.53299   1272.47208  197.00000  17.25392             14.77748
749.25792   816.47511   221.00000  20.28088             13.88286
752.80124   848.35404   161.00000  16.68844             12.28244
753.39231   1002.36154  130.00000  13.72108             12.16969
755.03704   1071.64815  216.00000  17.87097             15.49062
755.21106   1237.66834  199.00000  18.56497             13.88123
754.84932   615.76712   146.00000  15.78793             11.80796
756.37129   750.07426   202.00000  18.02302             14.33425
756.12651   1251.88554  166.00000  15.88791             13.31093
756.92035   515.40708   113.00000  13.92566             10.33231
755.45402   558.32759   174.00000  17.92394             12.50168
759.68394   928.67358   193.00000  20.21679             12.26981
760.24390   989.95122   246.00000  25.51722             12.70984
756.59748   1295.30189  159.00000  18.11864             11.22179
762.24451   1349.39185  319.00000  21.51678             19.00133
761.04800   764.28000   125.00000  12.96839             12.37811
764.25926   1167.41799  378.00000  25.71839             18.98831
765.46992   719.90977   266.00000  20.69689             16.64235
769.70870   1067.57826  230.00000  19.76501             15.02670
769.00000   510.30952   126.00000  15.67433             10.41465
769.38430   783.61570   242.00000  22.06664             14.33853
771.86220   897.22835   254.00000  21.59855             16.23700
770.36898   1039.05882  187.00000  19.84500             12.35161
771.82828   1243.45455  198.00000  18.34571             13.76355
769.42308   868.48462   130.00000  17.02010             9.88873
775.40769   643.21538   260.00000  23.79967             14.31154
777.20561   833.92056   214.00000  19.99430             14.09090
775.71895   1019.31373  153.00000  14.97370             12.99907
780.00000   535.63780   254.00000  22.73792             14.43332
776.48958   659.84375   192.00000  21.94975             11.26127
778.57653   920.67347   196.00000  21.09536             11.93700
778.92135   248.21348   89.00000   12.58930             9.13116
782.79184   695.80816   245.00000  18.13312             17.42147
781.59387   1097.87356  261.00000  21.02414             15.81389
785.44939   1221.45344  247.00000  22.22924             14.26655
784.08649   862.38919   185.00000  24.91554             9.52392
785.92903   1006.00645  155.00000  15.14494             13.13434
786.62791   1375.08837  215.00000  18.48424             14.92281
789.46320   758.80952   231.00000  18.00657             17.13686
789.93284   1019.44776  134.00000  15.93173             10.77193
791.80000   932.28824   170.00000  19.13946             11.63336
793.86916   835.35514   214.00000  27.93719             9.87526
795.71362   974.68075   213.00000  20.32867             13.88989
796.97742   1166.68065  310.00000  27.07023             14.66755
800.55924   1229.27014  211.00000  23.21963             11.80426
799.01230   731.90164   244.00000  24.20307             13.21034
798.14938   1100.98755  241.00000  25.02081             12.45298
800.11050   659.69061   181.00000  20.38439             11.43748
806.05603   804.18966   232.00000  30.31738             9.95281
807.93151   1137.84932  292.00000  24.76290             15.29093
807.50658   1048.77632  152.00000  17.14334             11.51837
806.00000   677.23239   142.00000  13.92902             13.11884
808.54028   1175.72512  211.00000  19.14929             14.47906
807.34351   764.04580   131.00000  13.68193             12.30952
809.14013   1060.77070  157.00000  16.77759             11.93001
809.46875   546.01562   192.00000  16.74069             14.63944
809.93600   855.24000   250.00000  28.65403             11.41960
810.41358   897.84568   162.00000  16.25667             12.70600
808.95652   728.71739   92.00000   11.67373             10.03378
817.68996   914.72489   229.00000  25.21977             12.96924
810.90909   701.54545   33.00000   7.11980              5.84062
816.09050   752.56109   221.00000  25.73937             11.13836
822.12500   1087.46474  312.00000  28.45215             14.43642
821.61468   1406.16514  327.00000  22.31149             18.82246
818.66667   564.59259   108.00000  12.71100             10.88308
820.91011   839.92135   89.00000   13.02667             8.79026
825.78176   650.56352   307.00000  27.33431             14.52424
829.01389   736.30556   144.00000  14.57091             12.68299
832.90336   802.32353   238.00000  25.68480             12.01594
831.27232   1429.07143  224.00000  17.48153             16.34624
833.91630   767.66960   227.00000  21.36647             13.64281
832.71831   1170.02113  142.00000  17.78925             10.67370
829.26316   1444.47368  114.00000  13.58239             10.74160
830.40541   852.40541   111.00000  14.49638             9.75100
834.63265   1058.23469  196.00000  18.13784             13.92907
833.75684   1126.82675  329.00000  29.17459             14.65098
835.69697   904.73737   198.00000  17.52664             15.08165
837.29787   832.67553   188.00000  18.03479             14.25840
833.27407   1180.42222  135.00000  14.33796             12.27457
838.51667   950.21667   180.00000  19.05666             12.08854
838.89172   1008.63694  157.00000  18.22151             11.13889
841.13714   1442.70857  175.00000  19.20991             11.83770
842.45894   863.04348   207.00000  21.45292             12.43904
851.16596   1116.57021  235.00000  21.53734             14.24699
849.62371   1181.49485  194.00000  18.68745             13.67584
846.75352   577.85211   142.00000  14.01051             13.22463
852.82119   1146.76159  302.00000  28.71520             13.57746
852.06633   704.82143   196.00000  22.98798             10.96714
849.81250   1028.81250  128.00000  14.60448             11.44921
853.09040   899.92655   177.00000  18.20904             12.94793
856.40437   874.69945   183.00000  20.21390             11.61556
853.38312   1215.83766  154.00000  16.08931             12.22198
856.13534   724.64662   133.00000  13.67738             12.45228
860.59504   1227.37603  242.00000  21.30565             14.87222
859.14966   802.94218   294.00000  20.52147             19.18212
858.56897   1014.93103  116.00000  14.32011             10.48593
862.23963   1028.43779  217.00000  22.71492             12.37551
864.29167   976.03241   216.00000  23.86676             11.65395
862.66667   599.52542   177.00000  17.22617             13.42153
863.34167   610.90833   120.00000  15.84459             9.94720
865.97826   1078.96087  230.00000  26.74918             10.99553
864.44444   855.75000   216.00000  21.24731             13.56270
867.07362   905.34356   163.00000  21.47791             9.76975
865.50732   931.70244   205.00000  18.22148             14.57577
866.17722   1487.58861  158.00000  15.49406             13.23076
868.21600   750.54800   250.00000  23.86108             13.56736
