# Filename: Nuclei_416_bidi_60x_004.npz
# Voxel size (nm): (108, 108)
# Area quantity: voxels
# Num nuclei detected: 1314
Y           X           AREA       MAJOR_AXIS_LENGTH    MINOR_AXIS_LENGTH
15.46635    658.25962   208.00000  17.59282             15.05925
23.84043    1025.57447  94.00000   11.26215             10.65053
33.11416    1245.18721  219.00000  18.83093             14.95157
36.86010    819.73057   193.00000  19.42962             12.83615
43.67516    1015.38854  157.00000  14.62306             13.74374
46.95556    1083.10000  180.00000  17.12089             13.48642
53.49115    1267.39823  226.00000  18.37889             15.73553
62.59686    770.68063   191.00000  21.37733             11.60667
63.01818    696.40000   110.00000  13.53823             10.46059
73.53509    1257.23246  228.00000  19.24499             15.14290
73.49689    886.12422   161.00000  16.58055             12.57598
80.08696    1191.17787  253.00000  20.41389             16.17609
82.03488    1013.81395  86.00000   11.13490             9.90648
88.65873    722.18254   126.00000  14.00741             11.71076
87.96667    662.91111   90.00000   13.25708             9.31040
100.97596   692.99038   208.00000  19.37978             13.75158
100.51316   1024.06579  76.00000   13.11319             7.82530
105.29952   905.80193   207.00000  18.23513             14.62796
105.41259   722.13287   143.00000  15.33340             11.91019
140.24812   752.00752   133.00000  13.73105             12.52751
198.78788   229.68687   99.00000   13.96990             9.15233
376.77778   634.79798   99.00000   12.53173             10.16518
389.39706   766.41912   136.00000  14.31284             12.08977
422.01087   808.84783   92.00000   12.24180             9.55673
426.69697   473.27273   165.00000  18.06513             11.70175
423.71233   847.05479   73.00000   11.12770             8.34574
429.50741   455.87037   270.00000  19.95313             17.84135
444.85714   848.45055   91.00000   11.82251             9.85806
451.50538   450.79032   186.00000  16.80641             14.13841
449.00775   1685.49612  129.00000  13.18098             12.55302
458.07547   778.88679   53.00000   9.06726              7.42623
479.23810   1609.09524  147.00000  15.03003             12.54482
480.25556   597.07778   90.00000   12.85107             8.89054
482.81905   752.40000   105.00000  13.29805             10.04570
487.31298   610.33588   131.00000  20.81495             8.15166
485.70161   1593.11290  124.00000  13.04643             12.23035
489.84768   429.64901   151.00000  16.13520             12.01716
487.06173   566.98765   81.00000   11.71046             8.92696
487.39000   809.49000   100.00000  12.31613             10.31299
495.40708   562.81416   113.00000  12.84705             11.41792
494.01724   1634.30172  116.00000  13.62997             11.05178
494.23457   602.20988   81.00000   11.25490             9.18070
497.27273   777.67273   55.00000   9.09631              7.71472
503.56061   681.10606   66.00000   9.93026              8.58114
505.11364   573.68182   88.00000   11.22431             9.99123
505.08602   621.83871   93.00000   11.27733             10.53143
503.84211   918.70175   57.00000   9.82279              7.37512
508.16760   386.03352   179.00000  16.97186             13.43148
510.55903   420.29861   288.00000  21.90078             17.20743
507.23596   583.22472   89.00000   14.70290             7.71486
508.65049   810.65049   103.00000  14.32486             9.19138
512.36620   823.59859   142.00000  15.15732             12.22373
510.94792   613.01042   96.00000   13.26759             9.17929
516.00000   697.42135   178.00000  16.19561             14.20028
512.83051   738.64407   59.00000   9.49631              7.88548
513.13793   774.26437   87.00000   11.95611             9.31672
516.03448   667.93103   145.00000  14.70478             12.63405
522.93162   777.70940   117.00000  13.86113             10.77265
524.13636   758.69697   66.00000   9.81975              8.55568
526.92208   718.93506   77.00000   11.43807             8.60796
531.33929   806.61607   112.00000  12.05075             11.82645
536.93564   1516.40594  202.00000  20.17273             12.85185
535.83962   697.75472   106.00000  16.16260             8.38012
535.67424   363.95455   132.00000  13.41742             12.59868
537.17600   756.35200   125.00000  14.68927             10.83343
542.91304   373.32174   115.00000  13.92204             10.68845
548.08597   1298.46154  221.00000  21.76445             13.08082
544.42169   715.18072   83.00000   10.56550             10.02600
547.79720   1625.10490  143.00000  17.04128             10.71983
547.03306   863.00826   121.00000  14.33334             10.78220
551.22340   677.73404   94.00000   17.53666             6.90228
555.13592   369.34951   206.00000  19.24401             13.66735
552.93243   702.21622   74.00000   14.31460             6.69820
562.01299   1312.83550  231.00000  17.99358             16.66225
563.31507   609.98630   73.00000   10.03441             9.26144
568.67308   700.50962   104.00000  12.76990             10.45810
568.14286   691.68571   70.00000   11.35608             7.81873
574.44255   1503.25957  235.00000  21.26863             14.27555
571.47159   1627.28977  176.00000  19.01934             11.95062
573.17105   531.97368   76.00000   10.79388             8.98316
571.74359   632.74359   39.00000   7.30297              6.80488
576.93805   341.90265   113.00000  12.95981             11.21504
580.51822   1321.60324  247.00000  22.50721             14.40769
581.77095   352.13966   179.00000  16.31234             14.15700
578.52055   686.21918   73.00000   9.99028              9.33222
578.05556   583.02778   36.00000   8.52670              5.38623
581.96154   521.21795   78.00000   11.46947             8.74575
581.59677   618.70968   62.00000   10.57469             7.43792
583.04255   635.88298   94.00000   15.19555             7.86023
581.43333   604.48333   60.00000   10.25822             7.43147
586.61881   326.61881   202.00000  16.35396             15.75735
583.44262   715.81967   61.00000   9.97971              7.77320
585.56122   1448.26531  98.00000   14.21705             8.86379
587.04478   705.29851   67.00000   10.30059             8.30166
593.96215   870.72240   317.00000  26.80815             15.32706
590.09091   940.48485   33.00000   7.32359              5.67174
593.70455   527.59091   88.00000   11.22763             9.98419
599.07742   1446.24516  155.00000  16.30282             12.20467
598.56164   668.04110   73.00000   11.12668             8.32225
603.11047   1601.25000  172.00000  19.09732             11.75148
604.82759   1330.65517  261.00000  24.95246             13.42870
605.85987   377.38217   157.00000  15.44163             13.01545
605.14530   470.74359   117.00000  14.83058             10.10360
611.34091   323.23106   264.00000  22.57202             15.09072
608.45902   541.32787   61.00000   9.72339              7.96945
613.50952   602.51905   210.00000  18.15271             15.21890
615.00000   1577.80989  263.00000  23.51988             14.52000
617.02857   1617.26286  175.00000  22.24094             10.14828
612.19444   485.79167   72.00000   10.84734             8.45460
612.97403   516.02597   77.00000   11.18243             8.74586
613.73913   706.13043   69.00000   10.46884             8.40283
614.98148   622.94444   54.00000   8.75736              7.94390
615.27778   800.01852   54.00000   10.00179             6.88947
625.87923   364.37681   207.00000  22.19318             11.88801
624.22845   824.34483   232.00000  19.26191             15.45070
625.53299   1437.98985  197.00000  17.56142             14.42445
629.56701   1527.29381  194.00000  18.87076             13.28546
626.15152   669.91919   99.00000   12.03618             10.45008
627.90323   713.17204   93.00000   12.01676             9.90307
630.44444   1389.15556  225.00000  25.98345             11.36062
631.01031   538.92784   97.00000   13.45651             9.15121
632.25926   685.21481   135.00000  17.21006             10.10537
637.17368   798.53684   190.00000  18.72226             12.95839
637.52432   1572.91892  185.00000  16.86821             14.04231
636.79630   551.48148   54.00000   9.41990              7.31840
640.84116   1407.70397  277.00000  23.94721             14.94453
641.57277   286.34742   213.00000  19.02274             14.30740
638.53846   489.75000   52.00000   9.60824              6.94237
644.93651   335.64021   189.00000  17.03457             14.19758
648.97097   840.62258   310.00000  21.49185             18.55457
646.94071   1360.23320  253.00000  25.84376             12.78385
650.88372   1545.35271  258.00000  22.60659             15.00926
653.22517   304.01987   151.00000  14.13117             13.65113
650.76000   623.24000   50.00000   8.26056              7.69415
657.70833   691.37500   72.00000   10.59702             8.69756
658.82278   596.54430   79.00000   10.50377             9.65600
665.84305   1355.71300  223.00000  19.75034             14.69683
665.38824   1562.20000  170.00000  23.22447             9.73391
663.09722   575.50000   72.00000   10.69987             8.70667
667.06286   260.65714   175.00000  16.54624             13.45907
673.07865   797.33333   267.00000  23.02490             15.33030
671.41803   758.67213   122.00000  18.34628             9.01800
672.59363   816.05578   251.00000  18.46235             17.47495
670.18033   1530.36885  122.00000  12.61173             12.35345
672.53416   776.57143   161.00000  16.31386             12.56016
671.65341   1474.47727  176.00000  17.45991             12.97702
672.91160   1507.22652  181.00000  21.41484             10.85287
681.03583   321.18567   307.00000  25.91283             16.87680
670.76087   612.97826   46.00000   9.59726              6.25652
675.87755   451.03061   98.00000   11.77175             10.66501
677.25664   1317.39823  113.00000  14.00635             10.29912
679.12409   681.48905   137.00000  14.19286             12.34216
681.60938   419.09375   64.00000   9.88448              8.30451
686.00000   446.29032   62.00000   10.41997             7.60378
685.70455   541.94318   88.00000   11.73027             9.57495
687.22000   524.04000   50.00000   9.17132              6.92003
692.45494   768.07725   233.00000  17.90455             16.97469
689.18033   700.95082   61.00000   10.26590             7.59766
689.52830   652.56604   53.00000   9.18076              7.31043
694.22472   1320.67416  178.00000  16.14339             14.10980
693.50000   585.13793   58.00000   9.50153              7.79275
703.61279   730.58249   297.00000  28.42236             13.65540
695.51515   487.51515   33.00000   6.95366              6.10041
699.42254   395.32394   71.00000   10.74075             8.42460
704.86517   815.84644   267.00000  22.01727             15.50241
702.42169   618.39759   83.00000   11.23402             9.49259
711.38732   745.04930   284.00000  26.49095             14.89546
708.45588   242.34559   272.00000  19.58299             17.78564
714.25000   653.16860   172.00000  20.09930             11.13784
718.14113   311.75403   248.00000  23.31354             13.57293
713.06452   578.95161   62.00000   11.28845             7.05387
721.07186   695.71856   167.00000  15.61962             13.87868
719.22111   853.34673   199.00000  20.16866             12.66208
721.93805   993.81416   226.00000  21.01096             13.73245
721.97222   487.45833   72.00000   9.77883              9.44581
726.11656   1309.17178  163.00000  19.10099             11.00178
722.34437   1346.04636  151.00000  16.01622             12.04788
725.36214   718.09877   243.00000  23.19213             13.42876
725.44444   562.43137   153.00000  18.61109             10.51420
724.31122   619.85204   196.00000  21.48147             11.82843
728.41989   1368.33702  181.00000  18.74342             12.40307
731.71488   879.42975   242.00000  19.24137             16.06783
735.54430   302.06329   158.00000  16.82098             11.96819
737.82301   693.61947   226.00000  21.19855             14.05104
736.68212   671.32450   151.00000  17.44907             11.30624
740.86538   251.12308   260.00000  20.61806             16.11192
738.06771   1381.06771  192.00000  18.53212             13.75065
742.22881   234.54661   236.00000  19.47063             15.46199
740.10798   548.04225   213.00000  22.39996             12.41378
741.80795   979.48013   302.00000  22.36491             17.44041
744.93802   929.48760   242.00000  18.70914             16.58098
747.78889   511.81667   180.00000  17.63931             13.33514
747.18548   480.90323   124.00000  15.14551             10.45931
753.28095   619.18571   210.00000  20.18056             13.80947
753.58261   722.33043   230.00000  20.55340             14.38891
753.52294   523.36697   109.00000  15.07302             9.45287
754.42128   762.31064   235.00000  19.75917             15.28009
751.97333   309.22667   75.00000   11.85010             8.16956
752.72308   472.64615   65.00000   10.17306             8.14400
759.78605   746.09302   215.00000  19.71049             14.07959
756.74227   295.83505   97.00000   13.18972             9.43110
759.69076   573.50201   249.00000  20.60906             15.67035
760.86667   1448.91111  180.00000  17.62346             13.02061
761.32298   457.62112   161.00000  15.64831             13.10860
760.34783   509.99130   115.00000  14.01950             10.61845
763.76596   896.20973   329.00000  27.51193             15.42055
762.59322   675.21469   177.00000  18.24601             12.59059
766.14362   243.26064   188.00000  17.21321             13.94179
763.81522   561.03261   92.00000   13.13853             8.92667
760.55882   656.52941   34.00000   6.94516              6.22530
764.97761   1323.00746  134.00000  15.12969             11.30751
767.98141   630.51301   269.00000  20.54332             16.71411
767.34043   1285.73759  141.00000  16.88457             10.74055
769.46296   718.70833   216.00000  19.71656             14.54572
773.39615   828.40769   260.00000  24.30718             14.28467
773.98324   702.43017   179.00000  15.52173             14.80295
776.48077   1474.29327  208.00000  20.51157             13.14304
779.32365   595.09129   241.00000  25.29506             12.33867
775.65986   815.96599   147.00000  18.60095             10.20599
779.90050   1270.66169  201.00000  21.69033             11.96585
775.99048   438.59048   105.00000  13.11010             10.25729
779.91985   1254.27481  262.00000  22.04077             15.31477
779.14706   676.69412   170.00000  15.22301             14.47165
780.04027   533.73826   149.00000  15.28995             12.63828
784.21290   653.40000   155.00000  17.01420             12.11901
787.53797   618.57278   316.00000  30.82732             13.67428
792.13333   481.40000   135.00000  14.56906             12.07914
791.21577   580.71369   241.00000  26.97438             11.71810
791.89970   925.49240   329.00000  30.53839             13.98822
794.31720   812.31183   186.00000  17.65097             13.56895
795.33571   423.22857   140.00000  14.16853             12.60099
795.84848   664.17576   165.00000  16.38443             12.86472
796.89634   292.78049   164.00000  15.90916             13.27034
795.29630   329.57407   108.00000  13.35508             10.47754
795.18824   731.52941   85.00000   12.51946             8.71509
796.98611   679.16667   72.00000   13.11818             7.00153
798.12500   1260.00000  136.00000  14.77032             11.70467
800.78750   1291.98750  240.00000  19.58001             16.67828
800.28148   750.14815   135.00000  15.15976             11.48654
800.65789   438.80263   76.00000   11.12138             8.70136
804.26163   556.24419   172.00000  19.22436             11.51755
805.54825   836.57456   228.00000  21.41662             13.64237
805.08374   725.79803   203.00000  20.68737             12.92788
810.47312   792.04301   279.00000  22.44738             16.20397
812.76667   610.09000   300.00000  26.36750             14.99581
809.94175   565.11650   103.00000  12.34866             10.65324
812.25676   706.56757   148.00000  19.89569             10.34048
816.20117   248.65015   343.00000  32.72702             14.04423
810.98182   1488.21818  55.00000   9.40999              7.47320
816.44162   219.64975   197.00000  18.20624             13.82772
815.64493   302.85507   138.00000  15.88812             11.12497
813.64423   483.84615   104.00000  11.88332             11.17338
817.50862   1476.91810  232.00000  18.80783             15.98335
816.76630   577.96196   184.00000  17.64578             13.39334
813.10256   625.74359   39.00000   7.62099              6.51489
818.98246   1252.92398  171.00000  19.94953             11.38588
821.09163   696.78486   251.00000  22.61119             14.29745
821.14634   645.62439   205.00000  17.27820             15.77078
823.94643   547.00893   112.00000  16.52097             8.86463
825.11180   1490.37267  161.00000  18.48791             11.38479
821.08333   631.86111   36.00000   8.51814              5.40775
827.08550   876.21561   269.00000  21.96625             15.98555
823.50794   414.01587   63.00000   9.98293              8.09975
828.43902   749.41951   205.00000  18.88575             13.95339
832.92491   826.45051   293.00000  27.15885             13.87515
831.21244   1285.84974  193.00000  19.02593             12.96779
832.14970   487.37725   167.00000  18.62549             11.45521
832.04297   574.87500   256.00000  22.80445             14.58989
832.10753   511.16129   186.00000  18.55498             12.80010
831.42574   1254.24752  101.00000  12.57086             10.48497
831.53731   417.88060   67.00000   10.87041             7.92325
833.90821   1298.70048  207.00000  20.01263             13.80932
840.47561   786.29675   246.00000  24.06392             13.93470
840.09706   600.40294   340.00000  24.29967             18.49390
842.56287   668.49102   334.00000  22.49279             18.98812
836.68750   795.43750   48.00000   8.67242              7.12957
842.40606   241.92727   165.00000  17.55970             12.02475
849.16547   914.21942   278.00000  25.74480             13.93500
848.32616   648.05376   279.00000  23.54732             15.26414
849.21622   731.52252   222.00000  20.06157             14.23303
852.01246   220.12773   321.00000  21.51295             19.35102
852.36652   847.93213   221.00000  20.58000             14.10804
851.67982   1521.96053  228.00000  20.75595             14.13527
855.67901   744.52263   243.00000  22.01504             14.42171
854.36683   1249.03015  199.00000  19.09297             13.33618
856.96262   708.80374   214.00000  18.67140             14.60930
856.18627   1288.10784  204.00000  16.45440             16.07463
858.69312   277.96825   189.00000  17.22981             14.10250
856.33333   324.82222   45.00000   8.16571              6.98044
857.92308   358.85714   91.00000   11.95058             9.70181
860.58784   634.06757   148.00000  15.92708             11.95812
861.35616   245.80365   219.00000  20.24998             14.08146
861.85887   896.22984   248.00000  18.27058             17.60102
861.67114   949.90940   298.00000  24.65114             15.44387
864.21076   693.02691   223.00000  20.00462             14.73803
863.68449   1800.30481  187.00000  17.21263             14.09305
867.56087   473.26957   230.00000  23.13854             12.71951
868.12264   437.25943   212.00000  17.81871             15.18337
870.98446   596.45596   193.00000  16.06627             15.49781
870.04211   630.91579   95.00000   15.58057             8.01897
869.54255   1782.25000  188.00000  19.11613             12.61593
870.00000   836.96403   139.00000  14.92907             12.06494
877.68551   858.85159   283.00000  28.71504             12.68591
873.99567   811.61905   231.00000  21.35358             14.03108
874.51515   1702.83333  198.00000  19.67360             12.99946
873.64211   1742.70526  190.00000  19.91314             12.40144
