# Filename: Nuclei_416_bidi_60x_020.npz
# Voxel size (nm): (108, 108)
# Area quantity: voxels
# Num nuclei detected: 2082
Y           X           AREA       MAJOR_AXIS_LENGTH    MINOR_AXIS_LENGTH
11.73184    994.15642   179.00000  19.45128             11.79312
24.20243    1297.97571  247.00000  18.52747             17.02876
30.80503    1045.39623  159.00000  16.46203             12.44842
33.08197    1182.26230  122.00000  14.09847             11.15723
44.45729    732.83417   199.00000  17.54372             14.67607
47.63014    711.19863   146.00000  16.60544             11.26095
62.61991    689.22172   221.00000  18.30987             15.48855
66.28169    929.49296   213.00000  19.31923             14.20356
69.64935    1306.51299  154.00000  15.90773             12.38297
75.69608    723.89216   204.00000  20.00031             13.39191
78.14218    913.29384   211.00000  16.79705             16.28835
81.71144    1146.40796  201.00000  18.40340             14.22234
83.67797    1380.60452  177.00000  22.69046             10.62713
82.58889    1351.72778  180.00000  16.85968             13.60210
90.63819    928.35176   199.00000  20.76902             12.23023
90.59735    667.07080   226.00000  21.99589             13.84945
97.55469    1235.75000  128.00000  14.62672             11.28101
99.09290    634.65574   183.00000  15.92577             14.70091
112.27149   919.43439   221.00000  23.81074             11.99395
107.15441   1071.77941  136.00000  13.84228             12.57666
106.97115   1121.87500  104.00000  12.95507             10.47611
112.76243   1339.14917  181.00000  17.28762             13.72463
120.87654   881.63580   324.00000  23.96105             17.25325
119.03226   1257.73118  186.00000  16.43967             14.42388
120.88961   689.21429   154.00000  15.56445             12.63833
124.47899   1010.39496  119.00000  13.47017             11.30559
134.24812   1096.43609  133.00000  14.36887             11.81961
133.93506   164.81169   154.00000  16.81549             11.76973
136.48718   1270.76923  195.00000  18.13965             14.51315
136.58989   646.36517   178.00000  16.09784             14.07967
140.13158   1195.01053  190.00000  21.82830             12.27596
135.82353   692.84314   102.00000  12.14702             11.11566
142.67337   889.52261   199.00000  18.57167             13.69190
146.90964   1228.22892  166.00000  18.28977             11.74158
147.55157   1066.21525  223.00000  19.94916             14.37021
149.86341   1350.84390  205.00000  23.54658             11.49642
148.29891   1080.69022  184.00000  18.69094             13.05628
147.48344   633.41060   151.00000  16.69274             11.66652
153.27953   943.26772   254.00000  22.27459             14.76419
160.70588   626.89412   170.00000  16.06746             13.49999
160.71186   887.03390   118.00000  13.66070             11.02099
160.64706   53.21569    51.00000   9.05146              7.82407
166.83173   774.92788   208.00000  21.78698             12.24834
165.33000   125.96000   100.00000  13.04611             10.43221
171.68664   666.10599   217.00000  21.47508             13.02394
170.50633   1187.44304  237.00000  20.17989             15.63219
170.16908   607.01449   207.00000  19.34081             13.65566
172.26244   1221.50226  221.00000  18.55090             15.20336
171.07921   200.50495   101.00000  11.98673             11.02740
177.89286   833.01071   280.00000  21.21923             16.92045
175.62983   574.37017   181.00000  16.86289             13.65594
176.01235   1160.36420  162.00000  16.05417             12.98017
179.86667   1024.52222  180.00000  17.24056             13.30596
180.80000   1065.16800  250.00000  19.22059             16.69028
182.33333   742.96154   234.00000  18.49322             16.64700
185.44571   1047.53714  175.00000  17.06888             13.15277
185.65359   617.27451   153.00000  16.77132             11.71959
186.95789   556.08947   190.00000  16.46456             14.76852
191.59854   798.04745   274.00000  28.61421             13.24169
191.39091   689.26818   220.00000  20.92198             13.51842
188.41228   1152.43860  114.00000  13.53001             10.82805
195.96178   1001.17197  157.00000  16.49477             12.31587
200.94834   923.86716   271.00000  23.14729             15.40486
199.76506   1027.75904  166.00000  17.12037             12.39982
201.57588   526.72763   257.00000  19.57700             16.91472
201.48663   1225.62567  187.00000  17.41282             13.71611
206.63462   1088.68077  260.00000  20.15528             16.56218
206.11230   505.22995   187.00000  18.67905             12.83679
207.11483   1154.79426  209.00000  21.16622             12.83917
207.93197   1260.13605  294.00000  20.50779             18.35883
209.66319   856.89236   288.00000  28.50396             13.24014
207.79638   947.04525   221.00000  19.90258             14.35952
210.87681   1198.75725  276.00000  21.09375             17.02722
210.51923   1240.23077  208.00000  17.50925             15.20472
215.16014   1139.25979  281.00000  22.25084             16.15695
215.30667   711.84444   225.00000  22.29738             12.92136
213.08621   970.19540   174.00000  16.25774             13.67151
216.48047   1074.01562  256.00000  21.36823             15.58489
218.00412   1379.78601  243.00000  24.86447             12.52965
216.09589   621.86986   146.00000  14.76686             12.68106
218.24038   1335.76923  208.00000  19.52655             13.67812
227.55804   687.23661   224.00000  19.77359             14.48097
228.44762   1267.87143  210.00000  18.25285             14.73742
231.40893   660.63574   291.00000  25.24612             15.44327
232.34413   907.50202   247.00000  21.23210             15.02761
231.65789   1324.83333  228.00000  17.70144             16.45381
235.53360   781.00791   253.00000  22.35344             14.42399
232.25974   1032.48052  154.00000  16.16831             12.22278
234.56221   1153.53456  217.00000  18.71142             14.82541
239.35798   985.19844   257.00000  18.89454             17.33995
240.32967   1277.00549  182.00000  16.97400             13.72217
240.61538   637.60897   156.00000  16.13675             12.43330
245.48136   872.61695   295.00000  27.53046             15.07692
245.15546   937.83193   238.00000  23.21560             13.13775
242.36923   1227.99231  260.00000  18.57496             18.23912
242.64571   1136.26857  175.00000  15.80426             14.13891
242.16092   167.20690   87.00000   13.27210             9.05883
243.86441   1028.87571  177.00000  18.19899             12.49118
246.78140   146.74419   215.00000  18.46696             15.11281
244.83333   744.07407   108.00000  16.34911             8.62534
249.33010   209.38350   206.00000  18.68884             14.18702
248.53052   1075.72770  213.00000  17.32578             15.90364
252.33913   849.98696   230.00000  21.52453             13.74677
250.99099   236.60360   222.00000  28.57311             11.43169
254.23684   1215.25789  190.00000  18.28323             13.42793
253.43750   1823.19643  112.00000  13.57795             10.90686
255.61062   1314.52212  113.00000  15.77364             9.72439
257.92746   961.47150   193.00000  19.19210             12.85718
259.20809   616.45087   173.00000  17.20203             12.87311
260.17188   772.36979   192.00000  20.94958             11.87944
264.66187   673.96043   278.00000  26.54409             13.50417
263.48744   922.03518   199.00000  21.43360             11.91155
262.48148   818.11111   162.00000  16.57027             12.44596
265.71074   986.49587   242.00000  20.87105             14.94405
273.41706   911.73934   211.00000  24.68543             11.41344
274.30159   932.95238   189.00000  22.26532             10.84142
271.49383   1136.17284  81.00000   11.89096             9.06509
274.86466   1274.27444  266.00000  20.21071             16.82325
276.13725   1301.13725  204.00000  18.22192             14.32076
277.79184   959.87347   245.00000  18.80000             16.84195
280.27907   1358.83333  258.00000  20.11241             16.61050
280.82653   177.86735   98.00000   11.43257             11.15945
281.32051   581.77564   156.00000  15.17632             13.13244
283.84328   1314.82836  134.00000  15.49376             11.50360
288.00000   550.78333   240.00000  21.90071             14.03833
291.74494   699.42510   247.00000  25.62714             12.41838
287.52062   1173.23711  194.00000  16.50470             15.24128
289.13907   535.41722   151.00000  15.83787             12.14268
296.46748   685.67480   246.00000  24.49456             13.13960
298.78988   771.39689   257.00000  19.67635             16.77767
301.51101   805.79736   227.00000  24.17874             12.15240
298.98077   994.51282   156.00000  16.85841             11.81441
301.12821   255.08547   117.00000  13.57026             11.00496
304.25287   624.33333   261.00000  21.47942             15.69691
305.16102   1144.11017  236.00000  19.86892             15.18273
304.67176   825.33588   131.00000  15.34861             11.04770
307.92899   1323.28994  169.00000  17.41774             12.41307
310.56250   911.41518   224.00000  17.95381             16.01509
313.37288   566.61864   236.00000  19.45896             15.70870
312.86432   1055.67337  199.00000  17.75136             14.39686
314.64130   590.48188   276.00000  21.38264             16.95587
317.14381   1211.66555  299.00000  21.78568             17.90945
314.71795   374.88462   234.00000  24.97793             11.93364
316.89116   502.84014   294.00000  25.62910             15.42216
318.43367   1372.36735  196.00000  18.16825             13.76225
318.33684   188.20526   190.00000  16.97856             14.32323
321.14935   1243.28571  308.00000  22.08960             18.13219
321.27500   335.65833   240.00000  19.29664             15.87960
324.02128   215.01064   188.00000  18.56306             13.06284
322.74093   652.21244   193.00000  17.85690             13.96660
327.47020   900.77483   302.00000  23.75053             16.32577
326.20175   174.55263   228.00000  18.06253             16.09175
326.29469   365.77778   207.00000  19.00776             13.88023
328.50254   580.05584   197.00000  19.48074             12.91927
331.53333   762.07083   240.00000  24.92162             12.99031
330.13223   614.56198   242.00000  20.05850             15.58956
330.30303   876.13258   264.00000  23.28552             14.47163
330.28090   1227.16292  178.00000  17.53394             12.94403
328.98413   1276.57937  252.00000  22.73542             14.35643
331.11024   727.59055   127.00000  13.77357             11.73639
338.06957   1161.31739  230.00000  27.85739             10.80169
335.00538   952.31183   186.00000  18.46888             12.84356
336.20442   1019.91713  181.00000  16.55262             14.08950
339.97500   645.67000   200.00000  19.57390             13.07785
338.74684   839.13291   158.00000  16.10815             12.49523
337.31034   631.68966   58.00000   9.40882              7.85948
342.60131   808.77778   153.00000  19.64828             9.97500
344.76113   307.18623   247.00000  20.21399             15.59923
340.74194   664.66935   124.00000  13.38582             11.91658
344.51376   882.26147   218.00000  20.78939             13.50732
343.38462   925.51479   169.00000  17.41251             12.47467
342.42857   452.26190   168.00000  18.18379             11.87150
345.77551   603.11565   147.00000  18.47867             10.81923
347.44706   543.74118   255.00000  21.27690             15.54438
344.40936   734.47953   171.00000  17.15002             12.84212
346.72561   1041.68293  164.00000  18.46478             11.40580
345.34247   654.35616   73.00000   10.16888             9.23825
350.09402   1013.72650  117.00000  15.50541             9.60882
352.65289   393.45868   242.00000  20.82365             14.99831
355.20091   630.51142   219.00000  22.56040             12.68756
355.27309   204.27309   249.00000  21.31413             14.91274
360.08304   1382.58478  289.00000  25.12928             14.92599
360.04566   731.51142   219.00000  20.33880             13.77762
363.21888   245.60944   233.00000  21.88237             13.63715
364.07600   1291.98800  250.00000  20.81628             15.37986
367.15726   518.92339   248.00000  29.62159             11.65115
365.76000   759.40571   175.00000  16.24778             13.71288
368.82373   859.02712   295.00000  22.05952             17.19364
368.69672   941.72541   244.00000  22.40742             15.16954
369.61236   1001.93258  178.00000  15.41376             14.88932
378.10284   910.84752   282.00000  24.56372             14.97411
377.80000   428.33953   215.00000  19.43295             14.10151
379.95203   550.11439   271.00000  22.58174             15.67343
381.65766   1032.09730  555.00000  30.40567             23.76518
379.72951   287.35246   122.00000  17.28050             9.43641
381.65022   809.62780   223.00000  21.10187             13.53318
382.78283   1380.79798  198.00000  16.69018             15.11271
385.24000   410.59636   275.00000  22.62953             15.59246
385.41753   995.92784   194.00000  17.88588             14.03185
386.68824   788.09412   170.00000  18.40332             11.82011
385.04167   1812.09722  72.00000   11.18145             8.36105
391.06545   1188.18909  275.00000  21.01686             16.96564
387.59043   129.81383   188.00000  20.27915             11.80634
388.69182   155.73585   159.00000  14.54409             14.06802
391.06818   891.88636   176.00000  16.94410             13.35795
395.68000   451.85714   175.00000  18.10260             12.33901
394.95489   556.47368   133.00000  13.62771             12.42426
394.19512   1055.09756  82.00000   11.35961             9.29478
397.39873   495.72152   158.00000  15.94434             12.61377
404.66667   619.52661   357.00000  28.87950             15.97075
402.70370   293.04630   216.00000  19.15462             14.54350
400.04255   751.88511   235.00000  22.07373             13.61100
403.09770   1318.23851  348.00000  24.27760             18.49808
405.55497   196.18848   382.00000  28.79826             17.15990
401.10396   588.63366   202.00000  18.09440             14.49395
404.58333   266.58333   228.00000  19.44891             15.17761
403.76285   1343.58103  253.00000  19.32136             16.72340
400.91463   141.91463   82.00000   11.61618             9.04472
408.10465   1071.84302  172.00000  21.40852             10.57371
413.35193   734.39485   233.00000  31.84418             9.75470
406.37200   778.81600   250.00000  20.00070             16.13445
408.98873   835.90141   355.00000  26.70416             17.60067
413.07463   636.18408   201.00000  21.22154             12.13686
416.46037   811.42988   328.00000  24.97815             17.20714
415.06763   881.19324   207.00000  18.15196             14.54893
419.64906   855.00000   265.00000  21.40160             15.97785
418.05147   785.51471   136.00000  14.17816             12.41412
420.88021   572.54688   192.00000  17.96892             13.79988
422.66968   401.42534   221.00000  19.02974             15.34159
422.73856   588.17647   153.00000  15.45957             12.85559
426.98693   542.67320   153.00000  14.97095             13.13737
430.87634   972.44086   186.00000  20.39539             11.70363
432.28696   1358.99565  230.00000  19.90896             14.79432
430.70629   983.65035   143.00000  15.10505             12.31285
433.78355   616.53680   231.00000  18.05772             16.41627
435.24091   564.54091   220.00000  19.15352             15.13232
437.57477   799.89252   214.00000  19.13738             14.27731
441.66897   489.63448   290.00000  20.36022             18.32724
443.06429   522.32857   280.00000  25.39781             14.16688
446.53558   830.91760   267.00000  26.92825             12.72934
452.81421   399.40437   183.00000  18.84792             12.49842
459.04016   737.02811   249.00000  25.42213             12.72659
456.23188   127.10145   138.00000  13.72023             12.94604
456.24060   899.24060   133.00000  14.37222             11.83123
459.47953   140.19883   171.00000  17.64903             12.58565
461.60494   751.66049   162.00000  18.76012             11.10058
459.57595   494.74684   158.00000  16.46847             12.40767
465.14800   765.13200   250.00000  22.24782             14.55546
462.56180   13.07865    178.00000  15.49368             14.65135
461.84375   109.58594   128.00000  13.51241             12.13078
461.68182   172.83766   154.00000  15.46113             12.81853
461.42857   1851.74107  112.00000  12.35012             11.54643
471.23952   1045.73054  334.00000  31.93142             13.59485
465.53205   1067.54487  156.00000  16.31537             12.17042
467.28729   462.21547   181.00000  17.75438             13.07439
468.67041   1260.54307  267.00000  20.53952             16.76320
470.12214   897.01145   262.00000  19.40073             17.32615
471.01456   403.32524   206.00000  23.29549             11.47444
475.25510   557.93878   196.00000  16.83312             14.85007
478.01111   786.79444   180.00000  18.95088             12.16587
480.10132   521.94714   227.00000  24.01133             13.41264
479.96341   408.49390   164.00000  19.11643             11.16193
486.37766   796.06915   188.00000  17.99787             13.39478
484.77600   974.65600   125.00000  14.86512             10.73071
489.97794   585.79412   272.00000  23.35712             15.03311
490.87619   562.37619   210.00000  19.39876             13.96859
490.72775   1017.12042  191.00000  17.92326             14.01640
493.09524   859.21825   252.00000  22.34562             14.51067
491.42763   1034.92763  152.00000  14.22434             13.61600
493.41007   740.74820   139.00000  16.07522             11.16444
493.84848   957.31602   231.00000  21.65225             13.68296
494.28448   534.57759   232.00000  24.58765             12.33950
497.63450   993.35380   342.00000  26.88090             16.76015
497.19251   31.87166    187.00000  16.65283             14.35039
498.20000   832.42857   175.00000  16.34685             13.69761
502.01504   1135.23684  266.00000  24.37927             13.98811
500.78157   935.47782   293.00000  19.76333             19.30741
502.69643   213.13839   224.00000  19.26502             14.93819
500.95135   360.01081   185.00000  15.78096             14.90592
504.57143   497.45089   224.00000  23.11262             12.72121
503.91000   461.60000   200.00000  18.71744             13.73200
507.08795   757.39088   307.00000  28.76272             14.58930
500.83013   885.16987   312.00000  29.14698             13.86720
505.46130   650.77090   323.00000  22.26910             18.97180
504.52609   1236.37826  230.00000  18.79849             15.68728
511.45098   815.99216   255.00000  34.40183             10.28935
505.28796   711.14136   191.00000  17.89226             13.99105
505.50476   738.05714   105.00000  12.74172             10.67956
509.20398   697.38308   201.00000  17.29690             14.81066
514.00000   344.85944   249.00000  19.56616             16.53758
513.51163   599.82558   172.00000  16.95119             12.93565
514.38424   412.57635   203.00000  16.98184             15.32244
513.16923   803.15385   130.00000  15.13002             11.07872
517.77273   77.80909    220.00000  19.19162             14.80109
521.08456   319.15809   272.00000  21.68946             16.00717
516.80625   738.35000   160.00000  18.12395             11.42199
523.99615   577.82308   260.00000  18.99225             17.58914
525.47682   105.00662   151.00000  17.03703             11.39457
526.52121   726.90909   165.00000  15.83582             13.78172
527.07451   649.18824   255.00000  22.18102             14.66454
526.92021   971.85638   188.00000  15.74760             15.27362
528.20561   170.72897   214.00000  22.74127             12.13059
532.42647   894.98162   272.00000  24.60891             14.25041
534.25091   780.64000   275.00000  25.75350             13.75010
