# Filename: Nuclei_416_ctrl_60x_004.npz
# Voxel size (nm): (108, 108)
# Area quantity: voxels
# Num nuclei detected: 1755
Y           X           AREA       MAJOR_AXIS_LENGTH    MINOR_AXIS_LENGTH
5.79545     994.02273   88.00000   12.51001             9.00021
8.26119     1095.93284  134.00000  13.43823             12.79853
11.28319    339.24779   113.00000  12.93362             11.17896
13.83243    1075.02703  185.00000  16.43869             14.35949
15.63380    1134.27465  142.00000  15.36865             11.82508
16.56604    752.67296   159.00000  15.59948             13.02469
19.35542    436.05422   166.00000  18.51967             11.50859
19.88050    953.78616   159.00000  16.33630             12.48653
22.40984    718.04372   183.00000  17.68122             13.33636
42.58015    1221.65649  131.00000  14.83931             11.42394
43.20896    1335.73134  134.00000  14.54496             11.84324
51.03125    410.76875   160.00000  21.14427             11.18251
52.32895    761.18421   152.00000  14.68698             13.20755
60.83333    435.93750   192.00000  19.88974             12.92509
81.89412    993.47059   170.00000  16.74121             13.00353
81.59843    566.92913   127.00000  15.37565             10.69770
82.29268    756.33537   164.00000  16.91773             12.37960
83.64773    1195.55114  176.00000  18.19577             12.51818
84.43284    1035.44030  134.00000  13.62846             12.63205
87.26012    977.37572   173.00000  16.09915             13.86128
89.35465    1280.24419  172.00000  16.52240             13.29617
92.97561    1130.97073  205.00000  19.83773             13.27099
100.13364   1044.34101  217.00000  17.92173             15.55552
97.73626    1181.92308  91.00000   11.60099             10.46347
97.88043    1007.31522  92.00000   12.26254             9.96443
108.82000   1248.60500  200.00000  17.11078             14.98688
113.91351   647.91351   185.00000  16.56378             14.28955
116.77358   424.16509   212.00000  18.06452             15.01326
117.16892   482.54054   148.00000  16.49344             11.69534
118.06857   903.97714   175.00000  15.57140             14.46047
122.06364   1095.53182  220.00000  19.76113             14.25605
121.41667   1136.42222  180.00000  18.12203             12.73689
124.23770   749.56557   122.00000  15.32541             10.26349
127.21569   612.53922   204.00000  18.26437             14.31840
124.90000   860.84444   180.00000  19.88323             11.66282
128.44444   1051.76889  225.00000  18.49616             15.50030
130.45714   1305.66857  175.00000  16.33389             13.87001
132.16292   950.45506   178.00000  15.69469             14.49701
135.90909   520.34091   220.00000  21.69397             13.05227
137.17427   893.26971   241.00000  28.31276             11.31331
133.81818   820.60606   132.00000  14.60752             11.67629
141.88028   1223.57042  142.00000  16.54725             11.17182
142.43878   1339.54592  196.00000  17.28230             14.66371
143.51200   861.40800   125.00000  14.97859             11.05405
145.47739   1140.69347  199.00000  17.84023             14.22693
146.85909   588.21364   220.00000  17.45203             16.14414
148.72332   962.13834   253.00000  20.53000             15.71711
147.05882   1101.50226  221.00000  17.41835             16.25762
156.43796   471.47810   274.00000  24.95749             14.34722
155.60311   407.90661   257.00000  20.84075             15.75442
151.30435   147.44928   69.00000   12.08763             7.72841
156.78676   773.32353   136.00000  13.85875             12.54652
159.61029   786.99265   136.00000  18.70905             9.29324
162.66438   1851.32877  146.00000  16.43242             11.46191
162.41406   1150.96094  128.00000  15.14444             11.03985
169.16667   651.95390   282.00000  20.65545             17.91375
167.57988   1269.30178  169.00000  16.47485             13.28397
171.02927   504.89756   205.00000  18.58204             14.15349
168.87209   1316.94186  86.00000   11.29671             9.70609
172.72464   1245.23188  207.00000  17.93621             14.74309
174.75362   731.96618   207.00000  18.80965             14.11033
176.46610   1400.44915  118.00000  13.91901             11.00838
179.98630   1377.13014  146.00000  14.57538             12.79542
182.68545   365.54930   213.00000  17.59259             15.63539
181.62987   693.68182   154.00000  15.41108             12.73653
183.65138   1186.79817  109.00000  13.46794             10.37021
184.79195   1262.22148  149.00000  15.89933             12.23548
186.26619   526.67626   139.00000  14.46666             12.28639
193.02326   796.26163   172.00000  16.11876             13.59935
194.98958   545.18750   96.00000   12.33889             10.24797
196.52667   1345.04667  150.00000  14.44558             13.39349
198.26357   449.71318   129.00000  14.57630             11.28297
204.36036   661.07207   222.00000  24.12307             12.51116
202.47183   431.26056   142.00000  15.99772             11.63480
208.91447   559.03289   152.00000  14.84666             13.13373
212.40559   1258.97902  143.00000  16.12566             11.81362
214.25373   723.93532   201.00000  17.79061             14.58989
227.70103   1294.65979  194.00000  18.45498             13.48416
227.07634   1502.41221  131.00000  14.01303             11.96043
229.92373   596.80932   236.00000  18.98023             16.04099
231.82081   747.02890   173.00000  21.43969             10.40331
230.94253   825.82759   174.00000  16.84266             13.18057
236.68905   761.09541   283.00000  28.21282             13.08512
238.30286   567.74286   175.00000  17.26145             13.04574
239.42593   1439.00000  216.00000  17.19250             16.05652
243.07895   1511.83333  114.00000  13.24332             10.97685
248.10417   522.79167   96.00000   11.79969             10.43548
255.58163   728.61735   196.00000  18.63939             13.45594
255.82967   835.15385   182.00000  17.30875             13.61817
255.28889   206.16296   135.00000  14.53983             12.08565
258.32246   1070.23188  276.00000  22.73489             15.67304
254.62832   1500.36283  113.00000  13.18550             10.92303
260.49495   621.44949   198.00000  18.21352             13.91257
269.81304   1262.04348  230.00000  20.47303             14.39642
269.20354   1531.83186  113.00000  15.38993             9.73541
278.72868   215.73643   129.00000  14.97501             11.54442
283.33641   850.00922   217.00000  17.48053             15.90791
284.19070   1607.75349  215.00000  18.53750             14.82040
284.32576   1508.72727  132.00000  15.37009             10.98869
285.46330   1583.96330  218.00000  19.17042             14.63603
297.85833   1056.34583  240.00000  21.00205             14.67240
303.72881   1236.43644  236.00000  20.18560             14.93188
304.85714   714.65873   126.00000  17.67617             9.24607
309.66304   570.38043   92.00000   12.88947             9.42654
314.66953   1563.54077  233.00000  18.36751             16.14640
316.76404   1029.01873  267.00000  20.56369             16.56037
322.87374   1217.46970  198.00000  20.25798             12.52920
325.77297   1666.48649  185.00000  18.15118             13.04375
328.34981   830.56274   263.00000  21.44629             15.68553
327.55085   863.41102   236.00000  19.40163             15.67310
328.98780   973.99593   246.00000  18.74336             16.74391
328.46483   935.47095   327.00000  24.89830             16.85643
332.37037   849.00823   243.00000  18.65400             16.70431
334.39759   610.03614   166.00000  16.62527             12.75496
345.27419   591.23118   186.00000  21.93983             10.88873
353.52198   381.05220   364.00000  25.42717             19.51503
353.58741   1577.87762  286.00000  22.51055             16.26756
353.60256   707.18803   234.00000  22.45570             13.44310
360.13568   291.75377   199.00000  21.39785             12.04860
367.71601   671.08761   331.00000  27.86230             15.85417
369.29412   1545.35294  153.00000  18.91092             10.59257
370.15766   1588.86486  222.00000  18.74248             15.15187
374.67907   731.14884   215.00000  20.16709             13.63145
376.29412   1680.50490  204.00000  17.99623             14.56851
376.74699   353.72892   166.00000  16.93965             12.58437
383.56842   635.01053   190.00000  17.46396             13.89535
389.56877   723.84387   269.00000  22.21007             15.88065
395.17200   697.60400   250.00000  21.96195             14.73616
395.24691   1696.66667  162.00000  18.78072             11.14164
399.64796   391.55612   196.00000  16.16735             15.52653
400.66553   463.98976   293.00000  25.74657             14.52425
405.94828   638.54741   232.00000  21.21326             13.96009
413.12903   661.57258   248.00000  21.17015             15.14201
411.06604   1689.80189  106.00000  13.10092             10.45603
424.22566   283.62832   226.00000  20.13848             14.38228
425.30151   353.04020   199.00000  19.52925             13.14176
425.01064   648.00532   188.00000  17.18797             13.96566
427.83764   682.23985   271.00000  26.79303             13.09268
428.68182   532.74747   198.00000  18.52248             13.63503
437.07048   784.89427   227.00000  20.00720             14.45211
436.44271   407.08854   192.00000  16.22193             15.05283
439.74194   311.91935   186.00000  17.36481             13.70045
439.90517   1702.12931  116.00000  14.35316             10.32854
442.94182   507.56727   275.00000  22.77089             15.62585
455.53200   287.13600   250.00000  19.10822             16.82390
455.78800   544.90400   250.00000  20.53231             15.51740
455.85455   691.17273   220.00000  19.81947             14.33020
457.16429   228.28571   140.00000  19.82277             9.84188
466.80669   1485.23420  269.00000  21.75523             15.84874
474.61404   413.02105   285.00000  21.29817             17.22251
472.47248   800.74312   218.00000  19.03484             14.75741
473.86726   651.80088   226.00000  19.36922             15.35152
473.75897   248.87179   195.00000  17.47193             14.37094
475.42132   679.92893   197.00000  18.17338             13.87564
481.51872   397.75401   187.00000  20.43846             11.77013
484.96759   630.93519   216.00000  25.03413             10.99264
482.81588   552.24910   277.00000  25.32619             13.93312
487.28399   335.50151   331.00000  25.71073             17.08518
485.14354   295.90909   209.00000  18.51396             14.50840
497.41237   1498.32474  194.00000  18.63528             13.31880
501.68016   398.86235   247.00000  21.34481             14.81375
496.00000   699.50000   28.00000   7.62075              4.74295
498.96429   717.19643   56.00000   9.29757              7.71290
504.23469   306.54592   196.00000  16.53410             15.13188
506.22449   509.22109   294.00000  21.25947             17.82294
510.67451   634.51373   255.00000  22.50548             14.59175
510.94946   826.91697   277.00000  20.06540             17.73942
515.42917   555.17500   240.00000  19.88747             15.51509
516.91739   748.90435   230.00000  20.32324             14.96654
516.77419   114.00358   279.00000  21.19646             16.88804
515.38290   438.27138   269.00000  23.81057             14.63919
516.72430   1491.92991  214.00000  20.25925             13.56489
522.62567   614.38503   187.00000  16.67690             14.41793
519.13333   847.71111   45.00000   7.96194              7.15922
525.14607   765.17978   89.00000   12.47352             9.14073
530.23529   281.09664   238.00000  18.37853             16.49093
530.39827   260.58874   231.00000  18.75848             15.70511
532.88024   649.11976   167.00000  17.40464             12.34035
531.23780   747.51220   164.00000  19.19111             11.05039
534.07059   714.25294   170.00000  19.64782             11.13610
535.72500   624.10500   200.00000  19.53710             13.55711
536.06897   1505.26108  203.00000  18.96333             13.72401
539.96667   844.00000   210.00000  21.32279             12.67719
538.99346   404.81046   153.00000  15.07916             13.11255
541.68142   470.84956   339.00000  26.91218             16.22488
539.55769   52.34231    260.00000  23.05247             14.77035
544.87195   577.11585   328.00000  24.59391             17.02305
549.17409   1567.54656  247.00000  27.36656             11.80994
545.33913   342.19130   345.00000  28.71575             15.75814
544.74757   525.36408   206.00000  19.67662             13.37078
548.54545   224.09091   231.00000  18.42486             16.05874
548.07955   413.68182   176.00000  15.76391             14.48372
549.47154   392.77236   246.00000  19.32060             16.28064
550.71667   509.45556   180.00000  15.89220             14.54455
548.88000   770.08000   50.00000   9.27856              6.88008
564.09402   602.61538   234.00000  21.92249             13.70908
562.60733   862.65445   191.00000  18.96681             13.01582
562.86667   1501.67500  120.00000  13.45460             11.57293
566.89796   342.05102   196.00000  18.13964             13.81697
567.63704   1048.02593  270.00000  26.72635             13.08542
569.68110   443.85827   254.00000  19.17093             16.92524
574.54091   656.20000   220.00000  28.68297             9.93628
573.15289   276.33471   242.00000  20.99491             14.74934
574.73754   398.18605   301.00000  24.41651             15.94422
572.73684   786.11111   171.00000  16.12142             13.65357
575.90476   1488.00000  273.00000  22.01024             16.07962
575.82805   977.80995   221.00000  20.60786             13.71339
576.69478   191.57028   249.00000  19.69938             16.27584
580.52605   544.63275   403.00000  33.19356             16.46498
574.09836   1507.09016  122.00000  13.53070             11.51389
576.04147   1534.44240  217.00000  17.79510             15.66793
581.64138   303.22414   290.00000  19.47899             19.00119
580.25941   1059.56485  239.00000  20.43379             14.91658
584.60088   797.13596   228.00000  22.64791             13.43012
583.21495   763.99533   214.00000  19.37306             14.32666
585.92537   600.05970   201.00000  18.82910             13.59344
592.00000   454.35366   246.00000  23.65207             13.32800
587.41199   1590.61423  267.00000  23.85688             14.33729
592.68699   873.93496   246.00000  25.10810             12.67274
597.19915   285.06356   236.00000  19.94317             15.13592
596.31343   482.89552   201.00000  16.42389             15.75786
596.15789   665.96053   152.00000  19.04423             10.28278
601.54111   894.37666   377.00000  27.60003             17.55460
598.05556   1479.16667  216.00000  19.95702             13.91115
599.93833   1126.43612  227.00000  20.09950             14.38882
605.83380   925.37746   355.00000  30.78041             15.23735
602.48649   518.57297   185.00000  18.18020             12.99262
606.13901   774.63677   223.00000  22.02596             12.98662
612.97118   810.12680   347.00000  29.04159             16.55324
609.35252   595.80935   278.00000  22.53770             15.87135
610.24051   575.08017   237.00000  19.02091             16.02041
611.80556   471.10417   144.00000  15.56538             11.89520
616.89062   408.82812   256.00000  21.60747             15.13945
613.94215   1145.92562  242.00000  19.71326             15.95465
616.96154   461.23077   156.00000  16.84869             11.87822
616.17062   1444.11848  211.00000  18.01390             14.95280
617.16176   689.61765   136.00000  16.30705             10.61762
616.17391   446.60870   69.00000   10.72587             8.17517
621.23451   429.47345   226.00000  19.92581             14.48772
620.79710   1175.58937  207.00000  20.42319             12.93687
623.46352   345.10730   233.00000  19.75572             15.12790
629.08504   490.25220   341.00000  27.23849             16.25940
622.82796   639.54839   279.00000  24.96969             14.54852
626.16034   179.20253   237.00000  18.56323             16.32971
625.26752   502.85350   157.00000  17.35067             11.56487
623.66129   452.32258   62.00000   10.28630             7.66104
627.42675   275.14013   157.00000  14.22095             14.10746
627.79747   1553.97468  158.00000  16.25829             12.42757
634.46647   1064.23615  343.00000  26.05028             18.60359
633.90909   527.56522   253.00000  24.07777             13.45338
633.80612   1443.15816  196.00000  17.91553             13.96466
635.32759   964.81034   290.00000  30.61283             12.48820
635.06977   719.03876   129.00000  14.43515             11.66545
637.64062   662.21875   256.00000  25.92871             12.68837
639.68974   1015.93079  419.00000  28.64848             18.78774
640.06373   1409.51471  204.00000  21.14781             12.31274
638.10623   699.29670   273.00000  28.46687             12.40602
641.28218   732.06931   202.00000  16.92456             15.31099
643.91406   910.78125   256.00000  21.49481             15.47059
644.98182   1095.68485  330.00000  24.06231             18.14868
645.13659   1475.55122  205.00000  20.28774             13.61595
649.02449   1703.86531  245.00000  19.46796             16.25300
645.45312   463.19531   128.00000  15.19570             10.75036
653.29448   564.21779   326.00000  34.01126             12.43814
650.39207   1396.66079  227.00000  19.20734             15.30865
647.90909   1221.52273  176.00000  18.90333             11.84659
650.22819   879.10067   149.00000  15.39179             12.34638
655.31169   1137.81169  308.00000  22.25156             18.17929
651.27749   1438.13613  191.00000  17.58689             13.92426
652.48611   1601.59259  216.00000  18.79965             14.63847
654.65351   446.37719   228.00000  19.43822             15.00621
652.49091   601.10455   220.00000  20.58852             13.75930
652.29032   746.77419   155.00000  15.17168             13.06328
657.90136   1174.59524  294.00000  24.14848             15.85582
656.25106   792.74894   235.00000  26.63245             11.38783
659.61765   233.55042   238.00000  20.44296             15.08435
663.04839   628.35887   248.00000  22.47394             14.15985
661.70408   728.43367   196.00000  17.26993             14.62290
663.60506   805.60253   395.00000  39.41662             13.61273
662.00816   1099.84082  245.00000  21.07917             14.89435
663.76895   1215.42599  277.00000  19.70343             18.20192
660.69318   716.94318   88.00000   11.79434             9.63277
665.51504   1349.55263  266.00000  20.63324             17.15113
661.40299   1119.00000  67.00000   9.73350              8.78793
667.57664   324.01460   274.00000  21.67800             16.50868
664.69159   828.73832   107.00000  12.07310             11.31851
666.26562   912.53125   128.00000  14.83695             11.14542
672.22015   196.32463   268.00000  21.46314             16.03840
669.24551   1560.42515  167.00000  17.38772             12.52026
669.60204   264.93367   196.00000  18.57034             13.53632
673.52521   1259.38655  238.00000  22.63647             13.45691
671.38350   663.14078   206.00000  21.01437             12.56895
673.21693   293.52381   189.00000  16.82248             14.39094
676.49822   608.98932   281.00000  26.16882             14.51134
676.09278   1235.73711  194.00000  16.85070             14.69154
677.09406   223.54950   202.00000  16.49937             15.68078
675.66092   719.28161   174.00000  15.75668             14.08750
682.11145   908.74096   332.00000  25.12060             17.86756
684.20755   929.55031   318.00000  27.27782             15.45685
680.05882   1641.41176  204.00000  19.46564             13.97361
678.98266   458.95954   173.00000  16.28337             13.67754
677.84252   1485.21260  127.00000  14.90106             10.90347
683.08225   1693.19481  231.00000  21.42245             13.89133
681.11374   1745.53555  211.00000  17.96595             14.98474
