# Filename: Nuclei_416_bidi_60x_006.npz
# Voxel size (nm): (108, 108)
# Area quantity: voxels
# Num nuclei detected: 499
Y           X           AREA       MAJOR_AXIS_LENGTH    MINOR_AXIS_LENGTH
47.56818    1421.43182  132.00000  14.08004             11.94548
49.86957    1401.14286  161.00000  15.05205             13.74903
86.06944    1482.62500  144.00000  14.66726             12.55610
133.06965   1326.03980  201.00000  17.53591             14.61584
149.58824   356.69328   238.00000  19.86365             15.39422
151.87317   1292.64878  205.00000  19.36142             13.58467
161.45946   1579.90541  222.00000  18.51853             15.47311
162.19333   415.01667   300.00000  25.33397             15.11867
187.96000   1333.32000  225.00000  23.85507             12.13593
192.28638   165.76526   213.00000  19.41149             14.16619
195.26220   1235.64634  164.00000  18.07621             11.70379
202.07583   455.04739   211.00000  27.20941             11.20230
208.75720   1139.55144  243.00000  25.44339             12.23343
204.11000   389.53000   100.00000  13.12939             9.72682
204.76923   1291.40385  156.00000  14.33379             13.93037
216.48137   1202.20963  644.00000  32.72582             25.84549
211.71348   1261.91573  178.00000  18.43088             12.40874
216.71429   394.68571   70.00000   10.34804             8.64392
223.95946   1160.21959  296.00000  23.39873             16.27049
235.54040   1373.56061  198.00000  18.97501             13.33429
238.13287   1359.44755  143.00000  15.68166             11.62573
238.96774   1200.43011  186.00000  16.48128             14.45696
239.39007   1175.89362  141.00000  14.84198             12.15361
239.86310   1297.98214  168.00000  19.48399             11.20683
249.38727   1148.42706  377.00000  29.06461             18.40913
245.63580   1327.29012  162.00000  15.90211             13.01280
248.72432   575.27568   185.00000  17.91546             13.18061
251.67143   1422.92857  70.00000   12.29302             7.26547
253.64968   1243.69427  157.00000  15.77418             12.91803
262.72727   1215.01136  176.00000  19.39273             11.63860
261.04225   223.81690   71.00000   10.93405             8.39819
265.82828   1248.69697  99.00000   12.94909             9.74401
273.94910   1157.05090  334.00000  30.06096             14.81598
268.03030   1404.08081  99.00000   11.97427             10.58361
274.85821   1307.44776  268.00000  22.96894             14.99860
276.88739   1365.13514  222.00000  19.37327             14.67612
278.87435   1456.98953  191.00000  18.65490             13.06175
278.27222   1208.85000  180.00000  15.62895             14.86126
281.86022   1443.15591  186.00000  18.04985             13.15402
283.51502   1428.91845  233.00000  17.97735             16.63393
285.87055   614.14239   309.00000  20.93549             18.92925
287.98077   1100.06410  156.00000  15.03264             13.20060
288.95876   1334.04467  291.00000  26.79829             15.05564
291.85507   1128.73430  207.00000  18.64594             14.17637
293.44348   1085.71304  115.00000  13.43530             11.05570
297.84109   315.28295   258.00000  18.53345             17.87480
297.14444   1198.43333  180.00000  18.48930             12.50986
297.05882   1076.26891  119.00000  13.79118             10.99669
297.83270   1236.65399  263.00000  22.51480             14.90088
299.37647   1149.70588  170.00000  15.80408             13.77946
302.04167   1470.38690  168.00000  17.56020             12.27764
303.26174   1098.06040  149.00000  15.95834             11.89505
307.94928   1275.76087  138.00000  14.69185             12.09644
307.67568   1054.79730  148.00000  15.79720             12.08975
309.20725   1320.11917  193.00000  16.95167             14.60130
311.20619   1354.87629  97.00000   14.78171             9.15158
311.52846   1260.72358  123.00000  14.28518             11.14279
318.91061   1155.48045  179.00000  21.95634             10.90322
320.00885   1241.41150  226.00000  26.53236             11.74717
324.04839   1102.57527  186.00000  17.08670             13.92462
326.24121   1213.79397  199.00000  16.16939             15.80586
329.36842   1407.10902  266.00000  20.22263             17.07103
328.60736   1426.74847  163.00000  15.97371             13.00164
331.68900   1145.58373  209.00000  18.59119             14.51677
333.64423   1487.33654  208.00000  21.61133             12.35523
337.10000   1051.58750  320.00000  26.77585             15.46517
332.11364   1194.44697  132.00000  16.36715             10.42075
332.87647   1503.65294  170.00000  16.16466             13.45199
333.15702   1177.35537  121.00000  12.61532             12.30032
338.94009   1327.05530  217.00000  18.99484             14.67348
343.22280   1434.08290  193.00000  18.04335             13.75733
345.70930   1165.08140  86.00000   11.72942             9.45662
348.29032   1146.10753  93.00000   12.57563             9.44808
355.29843   1217.78534  382.00000  28.35335             18.27650
351.67704   1407.16732  257.00000  21.09052             15.71188
350.74359   1279.49451  273.00000  22.57879             15.73368
358.27948   1178.96507  229.00000  20.73547             14.21491
357.24221   1335.12111  289.00000  21.94586             17.25611
364.76494   1536.97610  251.00000  21.74960             14.80410
362.70854   1427.55779  199.00000  16.23224             15.62649
367.47531   1390.85185  162.00000  16.62091             12.59342
371.82069   674.15862   290.00000  23.02795             16.56908
366.92135   1264.03933  178.00000  16.41911             13.88384
373.99451   1144.93132  364.00000  25.81583             18.73044
380.06810   1512.08602  279.00000  21.74518             16.39350
381.46567   1482.69851  335.00000  25.33078             17.28482
384.28723   1204.36525  282.00000  25.85649             14.62103
379.62667   1328.80000  150.00000  15.67010             12.50085
386.17042   1381.72026  311.00000  27.48703             14.46119
381.35593   1555.27119  177.00000  17.12728             13.16199
381.40659   1244.69780  182.00000  18.01102             12.92507
388.98238   1094.85022  227.00000  17.48837             16.54510
389.41558   1075.66883  154.00000  16.52582             11.92574
392.24060   1264.32331  133.00000  14.99171             11.39398
391.73184   1327.17877  179.00000  15.43600             14.91207
392.90741   1409.05556  162.00000  15.66670             13.23287
401.52297   1156.19081  283.00000  19.84363             18.42950
404.12442   1171.20276  217.00000  25.36205             11.13922
398.47791   1247.98795  249.00000  24.92869             12.83054
403.72646   1590.00448  223.00000  17.95949             16.02657
408.60081   1337.52016  248.00000  27.24633             11.81239
411.50000   1116.21875  256.00000  21.25844             15.48994
411.00000   1072.39888  178.00000  17.64828             12.88033
412.77885   1301.27885  104.00000  13.65965             9.95387
415.50340   1256.95238  147.00000  22.40977             9.13971
414.71963   1219.58879  107.00000  14.04127             10.10603
422.03470   1554.77287  317.00000  22.94491             17.63220
422.00000   1456.87817  197.00000  16.65202             15.17932
425.50800   1193.55600  250.00000  19.07538             16.78614
425.08922   1517.98141  269.00000  21.20871             16.25878
425.43949   1217.68153  157.00000  19.21576             10.67185
428.25786   1154.23899  159.00000  16.40192             12.39975
429.67662   1174.15423  201.00000  20.33968             12.75272
425.81818   1301.89610  77.00000   10.24596             9.70643
430.46667   1241.08205  195.00000  17.92196             13.87013
435.66798   1378.61265  253.00000  23.15601             14.16665
438.10256   1284.95238  273.00000  23.66983             14.90003
438.01266   1474.86076  237.00000  20.77456             14.70854
441.97917   1590.74306  288.00000  21.24766             17.61395
441.80412   1204.32990  97.00000   11.29523             10.95260
444.69461   1306.78443  167.00000  15.46377             13.83483
450.86747   1433.37952  332.00000  24.94999             17.88778
447.19565   1185.84783  46.00000   8.50468              6.90875
451.45981   1622.62701  311.00000  24.34900             16.37501
452.33945   1221.00917  218.00000  23.45681             12.18237
451.64516   1134.14194  155.00000  15.84166             12.64586
450.09091   1193.45455  33.00000   9.85798              4.20539
450.93860   1236.50000  114.00000  13.08136             11.20041
454.34553   1548.01220  246.00000  22.10031             14.27507
456.11765   1336.44344  221.00000  17.77717             16.00079
460.48936   1149.39514  329.00000  26.80217             16.04195
458.85930   1266.23116  199.00000  20.34109             12.70394
463.46367   734.22837   289.00000  25.48088             14.62095
465.17301   1171.55709  289.00000  27.98921             15.24256
457.14583   1184.81250  48.00000   8.71513              7.10472
456.67778   1208.58889  90.00000   13.97762             8.20262
474.81633   1208.45578  294.00000  22.57226             18.09847
470.45106   1486.53617  235.00000  23.59851             12.77047
473.48077   1584.48462  260.00000  20.43621             16.29575
478.62214   1262.18321  262.00000  20.28560             16.74304
478.97778   1515.57778  270.00000  28.51485             12.26070
479.08497   1283.05882  153.00000  15.56139             12.56092
486.03139   1189.44395  223.00000  21.86424             13.41728
486.83955   1300.74254  268.00000  23.05723             15.29889
489.37946   1137.28125  224.00000  20.03811             14.70341
488.07692   1355.44056  143.00000  14.13871             12.93238
492.55072   1169.76329  207.00000  18.65829             14.85431
493.92308   1228.12955  247.00000  18.78122             16.89416
496.80930   1126.72093  215.00000  21.30911             13.07371
492.46667   1450.21818  165.00000  15.94171             13.20573
500.92887   1209.58159  239.00000  19.51737             16.07898
498.19784   1331.38129  278.00000  20.36681             17.39003
499.90980   1269.69804  255.00000  27.38098             11.89772
510.90487   789.06858   452.00000  33.99242             17.20397
506.68635   1184.84133  271.00000  21.25600             16.45813
513.63231   1353.55153  359.00000  26.35245             17.99846
509.44672   1262.79508  244.00000  26.33388             12.02345
512.38441   1462.50000  372.00000  27.50087             17.48869
511.79769   1141.47399  173.00000  16.68188             13.31207
517.31982   1204.26577  222.00000  20.97275             13.53703
516.51645   1584.29934  304.00000  25.07618             15.71155
520.32883   1133.74775  222.00000  25.00776             11.58939
517.11299   1542.08475  177.00000  16.41985             13.78738
520.40299   1383.83582  67.00000   10.62041             8.13310
527.29381   1250.24227  194.00000  24.35020             10.27685
528.22275   1195.91469  211.00000  19.42282             14.06840
529.26923   1266.16346  208.00000  17.58985             15.21419
532.92473   1177.33333  93.00000   15.33821             7.82262
533.76779   1407.55805  267.00000  25.98765             13.15860
541.28235   1161.77255  255.00000  21.89115             15.34108
542.98119   1327.61442  319.00000  21.72282             18.79817
543.77941   1288.70098  204.00000  18.88588             13.80028
542.22628   1307.97810  137.00000  14.05847             12.46600
550.83966   1442.61181  237.00000  19.95298             15.20165
553.11765   1401.15294  255.00000  20.95050             15.59117
553.31343   1426.16418  201.00000  19.16872             13.39748
558.59939   1232.29052  327.00000  29.70393             14.25231
552.81061   1299.98485  132.00000  14.04022             12.01984
558.02685   1127.10403  298.00000  23.09905             17.98119
560.32765   856.94198   293.00000  25.07806             14.99518
561.44407   1177.98305  295.00000  24.91764             15.50087
563.54545   1199.22857  385.00000  25.06041             19.80215
560.05517   1286.93103  145.00000  16.44450             11.30479
566.83085   1268.69154  201.00000  19.55199             13.55065
570.88462   1285.29670  182.00000  18.18727             12.99862
581.48649   1262.73874  222.00000  18.61595             15.43571
587.00000   1141.59412  170.00000  17.41140             12.42371
581.76000   1447.20000  25.00000   6.13206              5.17264
591.83516   1124.03297  182.00000  21.73113             11.44159
596.68306   1252.97268  183.00000  15.98140             14.62772
601.92830   1263.70566  265.00000  26.24340             14.76318
599.88442   1159.73367  199.00000  19.08111             13.29033
609.08602   1488.69355  186.00000  17.99677             13.32798
614.15700   1475.22526  293.00000  22.91443             17.00359
618.83986   1295.03559  281.00000  25.53630             14.42198
636.60816   1331.20612  490.00000  29.00227             22.50826
637.29882   1377.51775  338.00000  21.18464             20.38975
646.25926   1417.43305  351.00000  23.88162             19.43702
644.50758   1142.13636  264.00000  20.09437             16.74161
645.85957   1399.43404  235.00000  21.40570             14.28280
652.07663   1461.84291  261.00000  25.02329             13.74695
668.27887   1152.56620  355.00000  28.88630             16.32200
678.20930   1186.14341  258.00000  25.47818             13.46381
688.58400   1180.56000  250.00000  26.61287             12.41420
702.68000   1236.77000  100.00000  13.06016             9.76051
710.51389   1224.11111  288.00000  21.85989             17.34135
721.48148   1259.67340  297.00000  24.14354             15.91762
721.32500   1238.61250  80.00000   11.71012             8.72815
901.18182   482.18182   209.00000  18.42112             14.48730
929.06701   568.34021   194.00000  17.72749             14.14279
949.51630   636.46739   184.00000  18.04982             13.00536
977.18421   696.40789   228.00000  18.92292             15.64683
1005.65106  372.67234   235.00000  22.46760             13.63602
1016.45992  507.56962   237.00000  20.17727             15.02172
1015.80203  746.27411   197.00000  18.38153             13.95081
1030.57709  490.22026   227.00000  18.69039             15.51752
1052.10993  327.07801   282.00000  20.46989             17.97510
1061.92241  797.09914   232.00000  19.23512             15.53299
1074.86064  404.45966   409.00000  31.94416             17.63073
1075.34146  644.67480   123.00000  13.65055             11.48590
1077.78462  421.75385   65.00000   10.31106             8.16943
1083.90449  447.67416   178.00000  17.97793             12.65910
1087.11579  283.73684   190.00000  17.01612             14.26932
1086.21667  369.87778   180.00000  18.86203             12.47710
1090.24096  694.65663   166.00000  16.67168             12.69516
1098.95677  650.28818   347.00000  23.65259             18.89460
1100.65778  839.51556   225.00000  19.35616             14.90515
1100.98137  576.27950   161.00000  16.21548             12.64721
1107.04487  290.01923   312.00000  22.42425             17.82500
1107.91852  452.11481   270.00000  19.62073             17.54947
1112.65480  586.95730   281.00000  20.79123             17.44893
1112.30233  636.51744   172.00000  16.12900             13.65581
1113.39937  385.27987   318.00000  27.98463             14.90848
1115.93991  253.71674   233.00000  19.10743             15.79218
1116.68750  269.52917   240.00000  18.06376             17.36062
1115.55747  545.93103   174.00000  16.51310             13.46831
1116.92821  334.54872   195.00000  20.11446             12.47380
1128.27711  876.59036   166.00000  16.18296             13.07737
1129.27018  331.00351   285.00000  28.68638             12.93251
1130.76923  519.08974   312.00000  20.35170             19.78880
1134.30904  231.27114   343.00000  22.82003             19.30981
1129.58586  427.15657   198.00000  17.85141             14.23216
1143.68219  452.95616   365.00000  30.21485             15.78771
1140.99298  627.30175   285.00000  21.52893             16.95407
1140.61935  701.61290   155.00000  16.14376             12.21971
1149.61672  428.21603   287.00000  20.90460             17.81315
1149.76512  598.95018   281.00000  21.52594             16.69306
1152.41516  548.64621   277.00000  20.74991             17.18119
1161.59459  348.52432   185.00000  18.85601             12.54509
1167.93605  523.47965   344.00000  28.91746             15.21586
1166.78241  308.63889   216.00000  22.26140             12.87666
1170.08155  454.60086   233.00000  26.07591             11.62360
1165.38415  689.76829   164.00000  15.90196             13.15593
1166.78443  361.67665   167.00000  16.63963             13.03288
1175.00851  295.77872   235.00000  22.30219             13.60624
1173.84834  471.81991   211.00000  18.95991             14.40823
1176.18696  198.70435   230.00000  17.41488             16.91973
1178.86235  410.54656   247.00000  22.99990             14.29854
1176.04797  347.29520   271.00000  29.16310             11.96217
1182.40000  389.05714   245.00000  21.80276             14.45848
1181.91416  273.54506   233.00000  17.43001             17.09132
1176.57576  533.12121   33.00000   7.91202              5.32408
1189.76316  481.65351   228.00000  21.37910             13.66169
1185.80537  698.72483   149.00000  16.05192             11.90376
1189.28649  309.90000   370.00000  25.76148             18.53434
1190.70260  361.95167   269.00000  22.02831             15.82877
1192.07358  227.52843   299.00000  22.89510             17.06987
1201.50000  192.33740   246.00000  28.17536             11.30519
1200.13242  459.55708   219.00000  20.45505             13.70858
1204.36957  520.62681   276.00000  22.29264             15.80364
1202.85789  169.86842   190.00000  18.58275             13.06249
1210.77966  153.28814   118.00000  13.79293             10.91985
1217.69444  383.00617   324.00000  22.39944             18.84126
1213.53390  700.60169   118.00000  13.67658             11.01099
1222.13043  164.40217   276.00000  23.25624             15.93820
1218.78307  322.86772   189.00000  19.20180             12.61702
1232.39246  298.79157   451.00000  30.20455             19.79592
1232.39301  372.94760   229.00000  19.09361             15.53055
1230.80702  323.52047   171.00000  17.00948             13.01075
1232.82143  401.70635   252.00000  22.59203             14.67194
1238.55872  146.81851   281.00000  21.29934             16.92619
1241.35443  489.42089   316.00000  26.31335             15.59710
1235.77778  545.50000   18.00000   5.25874              4.26875
1245.85664  262.47203   286.00000  21.63408             17.50653
1245.44828  204.28736   174.00000  17.38783             12.81076
1248.63028  566.80282   284.00000  21.57593             16.78723
1254.72881  464.10169   295.00000  25.41513             14.83549
1254.92169  223.80120   166.00000  15.16159             14.01369
1256.65421  527.41121   214.00000  17.61266             15.65330
1260.68750  409.56250   368.00000  25.32692             18.89123
1259.13500  347.58000   200.00000  16.94654             15.18488
1257.33173  379.79808   208.00000  19.68183             13.52991
1271.32432  187.18018   333.00000  23.23734             18.44391
1270.98343  342.86740   181.00000  21.19464             10.95667
1274.24542  602.49451   273.00000  21.14637             16.56684
1274.67143  222.72143   280.00000  20.32712             17.68161
1273.60099  264.93596   203.00000  17.23461             15.00938
1276.73817  126.43218   317.00000  20.74654             19.47369
1280.61129  325.16301   319.00000  31.84369             12.91262
1277.99603  437.19444   252.00000  19.60173             16.42855
1280.96057  554.83154   279.00000  22.95412             15.64110
1281.62865  634.93567   342.00000  22.31032             19.57562
1279.15205  402.33918   171.00000  16.70331             13.05160
1285.70588  526.17941   340.00000  25.20792             17.48621
1284.69281  351.41830   153.00000  15.11533             12.94742
