# Filename: Nuclei_416_ctrl_60x_014.npz
# Voxel size (nm): (108, 108)
# Area quantity: voxels
# Num nuclei detected: 1151
Y           X           AREA       MAJOR_AXIS_LENGTH    MINOR_AXIS_LENGTH
19.57419    821.27742   155.00000  17.47894             11.78433
22.23874    610.90090   222.00000  20.56767             13.87367
24.09268    924.79512   205.00000  22.07989             11.98460
22.25234    451.42056   107.00000  12.70844             10.70383
29.76000    1479.06000  50.00000   8.73638              7.31960
36.20536    668.29464   112.00000  14.89421             9.62653
44.19643    682.32143   112.00000  13.42434             10.68120
55.42446    569.42446   139.00000  15.68472             11.46882
63.73585    730.34906   106.00000  14.08185             9.71256
82.13235    1014.24510  204.00000  19.99272             13.04858
83.25610    744.43902   164.00000  15.22668             13.71186
98.13675    671.11111   234.00000  17.77544             16.99418
98.51471    757.08824   136.00000  14.56788             12.05387
102.48031   180.12598   127.00000  13.63553             12.00464
106.89952   696.79426   209.00000  18.39985             14.51658
110.25616   785.37931   203.00000  18.00648             14.50330
115.42857   726.98810   252.00000  19.44613             16.53239
113.93007   798.50350   143.00000  16.23402             11.20255
120.46277   1414.09043  188.00000  17.36918             13.77436
131.63333   762.39583   240.00000  21.55804             14.37102
131.49045   521.68790   157.00000  16.50795             12.77304
146.27490   786.44622   251.00000  19.94672             16.12391
147.63473   534.80838   167.00000  15.57268             13.80586
160.82759   205.01379   145.00000  15.20369             12.76134
163.01667   1087.29583  240.00000  20.40335             15.00995
168.10390   1351.15584  231.00000  18.96480             15.60831
170.80000   272.65217   115.00000  14.52943             10.14108
173.23223   521.13744   211.00000  20.35607             13.36086
175.27950   355.20497   161.00000  16.39311             12.65901
178.34973   1111.98361  183.00000  18.61572             12.64551
179.30994   310.11696   171.00000  16.30351             13.66414
180.58163   479.64286   98.00000   12.36085             10.16199
185.60944   339.84979   233.00000  22.77776             13.51469
188.24790   873.86134   238.00000  18.86625             16.13860
188.22330   1125.80583  206.00000  19.98029             13.16101
194.41627   434.78947   209.00000  20.86391             12.77971
191.51579   513.64211   95.00000   13.29543             9.30417
195.13596   844.24123   228.00000  18.15373             16.03136
202.31933   793.30252   238.00000  19.24522             15.89158
206.09091   505.50350   143.00000  16.11103             11.98461
216.06612   303.58264   242.00000  18.78561             16.48879
225.87719   742.87018   285.00000  21.62289             16.85550
233.94416   439.82234   197.00000  16.42450             15.28264
242.03721   550.73488   215.00000  18.48464             14.91243
247.07075   688.38679   212.00000  24.90335             10.94369
250.80556   582.38095   252.00000  20.87873             15.43268
252.08824   275.21765   170.00000  16.19343             13.63891
258.51321   636.27170   265.00000  21.23091             16.18211
260.94565   536.57609   184.00000  15.78611             14.95668
263.06780   497.84181   177.00000  15.70836             14.47868
267.70667   420.62222   225.00000  18.84562             15.23301
269.83410   281.16590   217.00000  19.50180             14.31177
273.10156   132.11719   128.00000  14.98570             11.20465
275.03557   154.45059   253.00000  20.61437             15.88049
271.35294   519.30392   102.00000  13.44390             9.70679
270.93976   561.53012   83.00000   11.82924             8.99244
275.23684   438.45263   190.00000  19.17063             12.69961
275.00000   530.33846   65.00000   10.44841             8.10780
280.40435   504.36957   230.00000  19.81139             14.86617
287.57412   595.06739   371.00000  35.71189             14.58738
283.67619   540.75714   210.00000  17.66584             15.17020
287.56021   425.47120   191.00000  17.01527             14.51920
288.81152   563.17277   191.00000  17.00887             14.61255
295.90213   300.82979   235.00000  19.37910             15.46347
295.39394   467.71515   165.00000  17.72332             12.04309
298.69767   571.55039   129.00000  14.56683             11.66100
306.19417   385.61812   309.00000  25.27662             16.35590
296.80303   500.90909   66.00000   10.00673             8.39680
303.42487   416.87047   386.00000  31.93735             15.74469
316.19697   311.58081   198.00000  17.76732             14.49768
315.64151   487.72956   159.00000  15.14487             13.46078
320.11673   417.48249   257.00000  20.84105             15.70533
322.75214   465.79487   234.00000  18.90852             15.83433
357.11373   462.87451   255.00000  23.90518             15.06708
436.61047   65.58721    172.00000  18.00699             12.33217
443.35254   947.09153   295.00000  24.81509             15.42398
454.25110   112.07489   227.00000  17.67593             16.54937
454.18713   70.08187    171.00000  17.87267             12.24672
458.14474   193.92105   76.00000   11.69619             8.54869
466.32692   146.80769   208.00000  19.64804             13.57455
471.68981   284.98148   216.00000  21.53530             13.16916
474.60819   660.10526   171.00000  17.36361             12.54746
484.77236   940.00813   246.00000  20.12920             15.72015
488.16783   110.01399   143.00000  15.19878             12.61968
501.91418   255.38060   268.00000  21.60323             15.87072
508.52734   666.74219   256.00000  20.85036             15.69035
505.70879   938.78571   182.00000  15.47854             15.00455
510.90270   299.40541   185.00000  17.23615             13.79323
516.08939   185.16201   179.00000  15.44753             14.86848
519.75472   1044.48302  265.00000  21.03674             16.10079
519.92188   967.86328   256.00000  21.28160             15.50030
516.03333   587.60000   30.00000   6.50274              5.88245
520.56017   998.51452   241.00000  20.75068             15.17764
522.86239   1013.97706  218.00000  20.90418             13.46648
529.47773   681.21457   247.00000  27.47610             11.68805
528.25461   946.19557   271.00000  24.16816             14.47915
528.28505   263.33178   214.00000  18.07382             15.11065
531.82143   666.72024   168.00000  18.23543             11.78748
534.04678   920.76608   171.00000  16.37983             13.64144
535.97970   134.72081   197.00000  17.36197             14.52073
537.87050   930.79856   139.00000  17.29819             10.50380
539.61828   191.98925   186.00000  15.90799             14.96089
545.26147   1231.25688  218.00000  16.90043             16.55478
554.74818   337.67883   274.00000  27.39078             12.87162
557.57721   896.78676   272.00000  23.96958             14.61026
559.93993   987.34982   283.00000  26.57441             13.65801
562.05098   939.85882   255.00000  19.99074             16.46416
564.82741   1014.53807  197.00000  16.88995             15.01189
566.88038   1222.59330  209.00000  18.60681             14.40900
567.15814   286.97674   215.00000  21.83972             12.59066
577.13057   1108.30255  314.00000  24.96083             17.04648
578.94821   999.91235   251.00000  23.25862             14.04838
577.68067   1070.74370  238.00000  18.72633             16.20624
583.97541   690.65164   244.00000  21.40714             14.59101
580.86667   959.25556   90.00000   15.90526             7.30935
585.83628   975.92920   226.00000  20.78822             13.92188
590.43265   793.77551   245.00000  23.80736             13.18951
589.29562   917.68248   274.00000  22.28191             16.66878
588.86574   306.77778   216.00000  18.28114             15.11129
591.78534   152.89005   191.00000  17.09844             14.25830
586.88889   674.05556   18.00000   5.38593              4.22563
588.29268   1205.53659  41.00000   8.30847              6.24045
593.91707   1180.14146  205.00000  17.83710             14.81999
593.70711   865.16736   239.00000  21.41797             14.52288
593.97479   901.96639   119.00000  14.05979             10.78164
600.04380   341.39416   274.00000  22.27959             15.70976
606.21739   881.36685   368.00000  34.96417             13.74731
602.92740   999.52813   551.00000  37.57579             20.65970
600.70161   1160.69355  248.00000  21.20804             15.10613
600.92683   976.41463   41.00000   9.36220              5.52163
609.66667   1197.37107  318.00000  23.04258             17.61937
608.43103   1030.74138  58.00000   9.17536              8.10562
617.93031   1063.62369  287.00000  23.01388             16.61463
617.65537   331.37288   177.00000  15.80864             14.26371
617.33333   1152.20988  162.00000  17.58039             11.79047
618.65946   927.23243   185.00000  18.59085             12.78623
620.87449   1100.41296  247.00000  18.33743             17.24311
620.30270   799.96216   185.00000  16.01316             14.82412
621.31915   971.36702   188.00000  16.89933             14.28844
625.29856   1049.84892  278.00000  26.08321             14.12600
628.89231   707.86667   195.00000  20.23775             12.35934
630.16410   826.01026   195.00000  17.40483             14.31311
628.46524   853.06952   187.00000  16.97361             14.17209
630.74299   1029.79907  214.00000  17.66968             15.80563
632.87008   333.68898   254.00000  23.34809             14.20912
632.07487   796.50802   187.00000  22.52757             10.86774
638.14525   948.08380   179.00000  17.57516             13.12868
641.84549   929.78970   233.00000  19.34082             15.48923
641.59239   1013.79348  184.00000  17.28791             13.66543
645.08065   732.07258   248.00000  22.53847             14.21800
644.64467   756.12690   197.00000  17.16230             14.65509
644.59016   873.26639   244.00000  22.59431             14.50728
645.93158   1071.27368  190.00000  18.16999             13.47236
647.00000   1093.64881  168.00000  16.04507             13.39195
643.30769   701.96154   26.00000   6.30365              5.19935
648.27586   889.04023   174.00000  17.17193             12.97463
649.68293   1203.93902  82.00000   12.73733             8.39248
656.23718   413.09936   312.00000  25.40804             15.87093
655.94760   1049.07424  229.00000  20.91182             14.12655
657.31507   1223.52968  219.00000  17.82410             15.66154
659.74632   859.19853   272.00000  21.79708             15.99606
658.84483   1011.36782  174.00000  18.54179             12.02476
659.85463   45.96476    227.00000  21.59273             13.50361
658.66667   362.90909   165.00000  16.66966             12.65942
664.13919   841.47619   273.00000  21.99541             16.24718
658.66949   686.35169   236.00000  24.95317             12.23438
660.08108   820.00772   259.00000  23.28558             14.42461
662.11032   1177.17438  281.00000  27.34544             13.40371
664.21569   352.18954   153.00000  16.27176             12.01968
663.30204   462.65714   245.00000  21.62213             14.45614
666.56402   541.80793   328.00000  23.96049             17.69718
664.82432   1194.93243  148.00000  14.38422             13.14731
664.35227   1241.80114  176.00000  16.53258             13.63021
668.79781   318.16940   183.00000  17.79124             13.15391
671.47212   693.27138   269.00000  20.13727             17.48941
672.56818   756.93636   220.00000  23.32818             12.03715
670.18000   913.18000   50.00000   9.42404              6.76984
680.29586   626.95266   338.00000  22.45154             19.52470
679.12690   933.32487   197.00000  19.87835             13.11493
676.94758   599.21371   248.00000  22.11191             15.21348
678.56757   905.41892   222.00000  20.76699             13.62215
681.70732   981.79094   287.00000  32.19500             11.85822
679.52941   1020.56863  51.00000   8.17457              7.88577
686.92885   1122.96047  253.00000  22.65714             14.37398
687.91882   1267.74539  271.00000  25.92242             13.77977
682.40000   1219.86667  45.00000   7.94421              7.21730
689.83621   898.21983   232.00000  20.59833             14.57287
687.77273   1007.36364  66.00000   10.03150             8.38123
688.38000   885.16000   50.00000   9.19577              6.93382
694.40256   1058.58786  313.00000  22.34569             19.23385
690.94444   1100.66667  144.00000  16.31114             11.55219
693.79487   922.89744   195.00000  18.18524             14.42875
694.05236   33.94764    191.00000  16.44748             14.85320
694.74061   789.86348   293.00000  27.61101             13.69379
696.34310   955.07950   239.00000  25.34609             12.02826
694.62585   1110.98639  147.00000  15.37054             12.67411
692.43478   601.41304   46.00000   9.43539              6.19972
705.13841   610.95848   289.00000  22.88563             16.27734
703.48138   723.65616   349.00000  23.65475             19.19497
703.05556   1145.73737  198.00000  19.00272             13.29107
704.46479   909.99061   213.00000  20.22215             13.53560
702.65278   1315.77315  216.00000  18.05867             15.28563
707.13889   1074.58333  252.00000  25.06344             13.05328
709.17417   650.84985   333.00000  29.35816             14.57311
701.29825   986.36842   57.00000   9.28226              7.82702
705.78947   776.02105   190.00000  17.69637             13.80375
706.37847   1001.95833  288.00000  24.42368             15.17666
703.07692   919.53846   39.00000   7.52168              6.91512
711.22449   687.72245   245.00000  19.82380             15.83223
708.41518   857.37946   224.00000  24.07307             11.98796
711.06780   1046.25989  177.00000  18.64488             12.72591
719.07473   957.65480   281.00000  26.20665             14.29575
714.95192   1113.27885  208.00000  21.48844             12.73564
718.94565   546.39493   276.00000  23.46513             15.01318
714.77895   1037.20000  95.00000   11.41556             10.84095
717.05530   738.45622   217.00000  19.00605             14.65797
719.19551   1346.82051  312.00000  23.96875             16.69985
717.44253   1308.58046  174.00000  16.36305             13.57322
719.29936   869.47134   157.00000  15.94051             12.69212
722.53036   598.98381   247.00000  21.45836             14.99492
719.13636   915.20455   44.00000   8.22383              6.88489
719.03571   1166.71429  28.00000   6.66075              5.40047
723.43529   325.44706   170.00000  15.11079             14.34283
726.83226   572.08387   310.00000  22.16339             18.16880
731.87582   835.38562   306.00000  27.24153             15.00693
726.64019   1053.98598  214.00000  18.13191             15.08854
726.57083   1222.96667  240.00000  20.28088             15.21144
728.78365   928.87981   208.00000  20.17644             13.31022
731.32226   1163.02326  301.00000  28.28013             14.38527
732.41176   632.77828   221.00000  18.95473             15.19963
730.18280   1144.15054  93.00000   12.90561             9.17861
732.03965   761.26872   227.00000  23.40956             12.82177
728.48387   907.74194   62.00000   9.89570              7.96599
734.89151   724.25472   212.00000  21.70224             12.64961
733.51004   789.75100   249.00000  18.58512             17.42526
730.72059   814.51471   68.00000   10.41587             8.28311
732.44037   1189.71560  218.00000  19.71339             14.12182
733.22603   9.27397     146.00000  14.71832             12.65709
732.90598   26.11111    117.00000  13.41686             11.24815
732.73913   776.13043   92.00000   13.26571             8.84941
735.85484   897.81183   186.00000  19.55126             12.24067
735.10897   964.10897   156.00000  15.53671             12.88509
734.44853   1979.65441  136.00000  15.78103             11.13315
742.60355   363.68343   338.00000  29.28194             15.49613
735.56504   597.13008   246.00000  22.09075             14.26184
740.80270   918.35135   370.00000  25.33392             18.96468
737.44162   1259.61421  197.00000  20.07343             12.68126
744.22182   671.86182   275.00000  26.71051             13.37302
740.86061   1352.10303  165.00000  15.19550             13.86988
738.88679   1273.16981  53.00000   9.30892              7.24231
744.62944   1074.59391  197.00000  19.53503             13.03116
745.40376   626.23005   213.00000  20.54232             13.64143
745.75949   1251.84810  158.00000  16.81877             12.20029
741.69231   1185.11538  26.00000   6.16606              5.34412
748.61026   336.90256   195.00000  18.82886             13.22233
750.38492   1046.54365  252.00000  23.14885             14.80506
751.77857   1126.98571  280.00000  21.11198             17.00116
755.11373   786.99608   255.00000  22.06336             16.93809
752.52709   894.26601   203.00000  17.77123             14.91206
759.55319   737.16667   282.00000  28.00901             14.09587
755.00348   910.47387   287.00000  24.34709             15.52167
753.79186   965.68778   221.00000  19.61584             14.78923
750.23636   3.98182     55.00000   9.91342              7.09592
757.41961   1190.90588  255.00000  20.47573             15.99600
754.25610   799.04878   82.00000   10.75474             9.94273
758.55941   1161.85149  202.00000  18.77157             13.80096
755.88172   761.25806   93.00000   11.95203             9.89566
759.02907   665.41279   172.00000  16.22728             13.80869
765.95177   324.26045   311.00000  25.68728             15.44805
762.32526   1244.68166  289.00000  22.15725             16.71163
763.69080   1453.40705  511.00000  43.00303             15.66151
765.31880   1515.66213  367.00000  26.88541             18.20261
765.25926   712.44444   270.00000  24.13402             15.44147
764.82051   1292.79121  273.00000  30.60742             11.75802
763.29918   1559.93852  244.00000  22.48678             13.88948
761.12500   1262.35000  40.00000   7.62600              6.69583
764.44186   1360.15504  258.00000  26.48816             12.66323
764.41026   654.70513   78.00000   11.90174             8.38238
770.37771   1220.46130  323.00000  22.44114             18.98693
768.99024   28.24390    205.00000  17.93531             14.65658
773.32963   985.10000   270.00000  21.07656             17.12651
771.67027   57.43784    185.00000  19.69766             12.19020
773.27469   1175.70062  324.00000  20.85470             19.90771
773.81731   3.10577     104.00000  15.73218             8.74075
776.99222   613.20623   257.00000  20.64599             15.94407
777.40893   1306.42612  291.00000  22.47597             16.69576
781.07447   923.98227   282.00000  22.20807             16.71069
779.33119   1091.18328  311.00000  26.45787             15.06739
780.87087   555.03303   333.00000  23.03293             19.28790
782.10432   659.61871   278.00000  23.12477             15.46254
784.54751   360.63348   221.00000  18.79532             14.99709
782.00461   1053.18433  217.00000  21.49462             13.05499
787.02151   840.83333   186.00000  16.50455             14.44931
787.70283   30.21226    212.00000  19.63718             13.78070
789.69847   778.79389   262.00000  23.27865             14.85710
791.85714   1344.53175  252.00000  24.59106             14.49523
793.07182   1147.25967  181.00000  19.37651             12.14132
796.00316   822.49684   316.00000  23.40082             18.29010
793.15038   999.23308   133.00000  15.17044             11.16228
794.96970   952.65530   264.00000  24.22112             14.73289
802.15335   881.92971   313.00000  23.16889             18.07332
796.09467   901.44379   169.00000  15.67553             13.74238
799.32618   415.40773   233.00000  19.59686             15.21900
795.42424   1329.42424  33.00000   6.68318              6.22799
800.19620   1159.41139  158.00000  15.80948             12.98499
