# Filename: Nuclei_ctrl_pfa_005.npz
# Voxel size (nm): (108, 108)
# Area quantity: voxels
# Num nuclei detected: 580
Y           X           AREA       MAJOR_AXIS_LENGTH    MINOR_AXIS_LENGTH
30.27473    723.19780   91.00000   12.82750             9.07816
239.70213   1229.08511  94.00000   12.01168             10.08332
247.02128   896.23404   94.00000   13.31825             8.97016
307.60847   1085.40212  189.00000  16.76459             14.37383
318.75588   697.92353   340.00000  23.91952             18.21015
319.67577   1097.01706  293.00000  21.12608             17.70449
338.40551   735.60236   254.00000  20.02959             16.29505
352.36538   806.15000   260.00000  19.03610             17.70680
358.15084   772.00000   179.00000  16.67585             13.93316
363.86111   714.70139   288.00000  20.99959             17.59904
369.22311   815.42629   251.00000  21.79515             14.79288
379.59937   848.35647   317.00000  31.51997             13.24357
387.66848   710.20652   184.00000  21.81351             10.95800
396.57647   647.01176   255.00000  19.28645             16.96501
404.73976   594.78554   415.00000  35.66260             15.15854
406.83200   764.15467   375.00000  24.38302             19.95954
413.13291   558.10759   316.00000  21.98139             18.61254
416.15326   698.55172   261.00000  20.19291             16.62190
416.94071   646.09091   253.00000  19.44476             16.63243
420.88015   729.89888   267.00000  25.29359             13.53335
438.87121   859.51894   264.00000  22.79004             14.75796
438.60360   620.84234   222.00000  17.21974             16.48454
444.24686   685.67782   239.00000  26.39991             14.03847
456.00912   811.49848   329.00000  26.77254             16.43580
468.78012   685.91265   332.00000  21.39125             20.00303
474.21450   781.56193   331.00000  25.15563             17.04742
475.62155   847.40055   362.00000  28.28712             16.89803
478.46792   1068.35849  265.00000  20.25054             16.98283
481.50595   661.64583   336.00000  24.62756             17.51189
491.81755   715.69746   433.00000  32.58723             17.27648
495.75269   762.08244   279.00000  20.06202             17.81580
497.76510   1031.56040  298.00000  22.37099             17.74673
498.05357   841.54018   224.00000  17.92686             16.04410
504.54040   874.08081   198.00000  19.05395             13.29419
510.60554   985.78465   469.00000  33.90984             18.26364
512.60976   924.25784   287.00000  23.35922             15.94688
517.03109   833.71244   386.00000  25.13313             19.77863
523.72768   905.26786   224.00000  18.99916             15.06833
526.54545   875.63636   187.00000  18.94215             12.60881
529.70098   980.30882   204.00000  17.98523             14.51458
535.51299   665.88961   154.00000  15.70141             12.52823
552.30317   654.11765   221.00000  19.25839             14.87145
565.63725   794.87255   306.00000  23.56707             16.67312
574.79600   665.89200   250.00000  21.85312             14.73135
580.23697   1309.89573  211.00000  20.89514             13.16064
590.13006   895.60983   346.00000  24.17826             18.77861
589.33766   1228.91558  308.00000  21.96754             17.93084
601.81388   1375.94953  317.00000  26.82058             15.21284
603.33155   936.12299   374.00000  26.31777             18.17223
604.63754   1267.33333  309.00000  23.05279             17.13878
606.07042   1183.85446  213.00000  17.92228             15.13718
611.82439   1132.84390  205.00000  19.00809             13.79269
622.31492   1330.67956  362.00000  26.44067             17.87320
616.67021   945.88298   94.00000   12.18129             9.87354
625.34219   1377.56478  301.00000  22.96351             17.78943
628.51140   1408.91531  307.00000  27.76904             14.27629
629.32192   1131.15068  292.00000  22.40854             16.67581
632.27358   977.89623   318.00000  22.37088             18.19836
629.98739   1265.83613  238.00000  19.32512             15.83603
633.41584   1253.91089  101.00000  12.85333             10.16191
642.44178   1364.87671  292.00000  23.32824             16.19707
649.13528   1006.35544  377.00000  26.22831             18.91178
645.28481   1252.86709  158.00000  17.34477             11.73370
654.48057   1107.03887  283.00000  23.24609             15.94555
661.69648   1232.41463  369.00000  25.17645             19.14296
656.50000   1414.24194  62.00000   9.82934              8.03997
670.85241   1341.69578  332.00000  25.95108             16.57663
671.57944   1121.29907  321.00000  20.96042             19.61533
676.80723   1371.11446  332.00000  25.39512             16.81563
685.99344   1429.42623  305.00000  24.98549             15.64246
691.80122   1179.26606  327.00000  21.83469             19.13388
707.14724   1193.22699  326.00000  22.63700             18.42551
717.12288   1276.40678  236.00000  22.38693             13.49969
720.66787   1207.49819  277.00000  24.58207             14.62528
718.40252   1237.40252  159.00000  16.68504             12.17058
720.89892   1256.79783  277.00000  20.83635             17.36683
722.46154   1159.97802  273.00000  20.35511             17.14613
732.98168   1373.89011  273.00000  20.76688             16.81999
756.74278   1428.63780  381.00000  26.37329             18.53876
756.48325   1362.44976  209.00000  19.65111             13.61570
757.23469   1136.01701  294.00000  20.95923             17.94895
759.72861   1314.75516  339.00000  28.12920             15.83553
758.66990   1288.34466  206.00000  19.45699             13.49848
766.03889   1464.67222  360.00000  24.61684             19.15089
770.98113   1250.02830  318.00000  25.02610             16.72388
766.13089   1375.28796  191.00000  22.23669             11.06724
774.04895   1167.23776  286.00000  20.66262             18.00626
777.48084   957.43206   287.00000  20.45726             17.93715
774.62679   1287.35885  209.00000  20.19182             13.24417
778.71329   837.10140   286.00000  20.57152             17.84169
776.85915   933.06573   213.00000  17.99270             15.09433
781.89577   1389.87296  307.00000  22.19624             17.77389
786.98089   905.66561   314.00000  25.55310             15.73897
780.72414   1221.65517  29.00000   6.53899              5.60026
793.22892   829.13253   249.00000  18.43597             17.45423
794.26596   947.30496   282.00000  21.92302             16.44061
796.12537   1313.53731  335.00000  28.38042             15.05880
796.70455   273.04221   308.00000  22.22114             17.77393
793.15068   1287.45205  73.00000   12.72622             7.35030
800.85409   1409.44128  281.00000  33.72677             11.45636
802.22568   1472.08560  257.00000  21.38718             15.70517
803.62948   1260.76892  251.00000  19.42996             16.49965
806.40468   714.23077   299.00000  21.24501             18.10338
808.54751   1352.80995  221.00000  19.29213             14.61406
811.29562   784.33942   274.00000  21.23433             16.46918
810.78333   982.68667   300.00000  20.88495             18.52000
815.84615   35.49231    195.00000  20.87080             12.80822
815.04248   1234.85294  306.00000  21.05005             18.52672
815.93907   860.36201   279.00000  23.32998             15.44444
819.94569   204.73802   313.00000  21.44469             18.79745
820.70075   321.68828   401.00000  25.24975             20.45618
820.68165   1434.35581  267.00000  25.43659             13.41695
821.35915   240.55986   284.00000  21.65243             16.84671
826.90217   1490.96467  368.00000  30.37236             15.93735
822.31359   747.12892   287.00000  20.76454             17.71941
818.27692   589.58462   65.00000   10.53879             7.83827
823.04403   1306.17610  318.00000  26.59642             15.27370
823.59441   1452.67832  286.00000  21.43630             17.09787
826.81533   102.35540   287.00000  21.97108             16.79891
828.88832   1196.72589  394.00000  30.55332             16.68813
827.97281   664.78550   331.00000  24.36625             17.45646
825.75564   821.87970   266.00000  24.97065             13.73657
826.59189   1148.73243  370.00000  31.25035             15.53147
830.72945   1381.30822  292.00000  25.78239             14.48388
832.55233   868.54360   344.00000  26.27767             17.74275
834.24176   1253.72802  364.00000  22.36113             20.97758
831.95506   1539.98876  178.00000  15.86990             14.37146
833.75686   1570.11373  255.00000  20.22631             16.26166
839.33233   936.43202   331.00000  25.75373             16.58679
842.07143   1408.76871  294.00000  26.39936             14.30048
843.98446   617.59845   386.00000  27.75389             18.12758
838.29767   70.16744    215.00000  22.14641             12.50805
843.75207   187.93802   242.00000  19.49357             16.18020
847.18497   1508.49711  173.00000  17.57857             12.56917
851.35522   1322.55522  335.00000  21.91645             19.53554
855.00826   1087.45455  363.00000  27.80731             16.72193
853.77994   1114.18663  359.00000  25.53596             18.10271
851.26891   697.24370   238.00000  18.37601             16.55690
851.78814   1446.76271  236.00000  19.11881             15.82653
849.95906   1484.05848  171.00000  24.63519             9.38813
852.67358   604.02591   193.00000  16.46203             14.99537
858.44190   791.89333   525.00000  31.28471             21.94840
853.52941   1001.17059  170.00000  15.22370             14.26454
860.93474   167.58316   475.00000  28.12303             21.64941
857.55466   886.65587   247.00000  18.93376             17.14640
857.21106   29.90955    199.00000  16.94184             15.02995
858.20513   659.40513   195.00000  16.80613             14.85790
866.14286   942.10431   441.00000  31.30761             18.59009
870.01361   915.34354   294.00000  29.08113             13.26299
866.32919   1492.57764  161.00000  24.59657             8.69701
867.17297   1304.81081  185.00000  15.68635             15.09826
867.54231   1344.21154  260.00000  20.46034             16.22389
872.79730   342.98311   296.00000  24.33103             15.88263
868.84977   833.99531   213.00000  17.36880             15.74953
869.49123   630.28655   171.00000  16.28171             13.36313
866.47619   650.17460   63.00000   10.29595             7.82982
873.35274   855.19863   292.00000  24.01242             15.83176
874.04603   777.60251   239.00000  19.24261             15.93019
875.24857   1205.94857  350.00000  21.72185             20.64223
874.77734   1389.44922  256.00000  21.50232             15.28491
872.57325   1410.25478  157.00000  16.50507             12.21932
875.55333   1449.76333  300.00000  22.21915             18.30649
874.32422   116.67578   256.00000  20.52018             15.91566
877.54032   592.42742   372.00000  23.97214             20.05638
878.92123   69.48973    292.00000  21.70749             17.30386
877.00000   93.72659    267.00000  20.03591             17.10431
881.40488   749.40488   205.00000  20.13596             13.92909
884.11314   882.50365   274.00000  21.15020             17.22237
882.89627   20.31535    241.00000  19.33777             15.95394
882.43017   821.07821   179.00000  16.20735             14.54278
889.19106   808.21138   246.00000  18.46531             17.19264
889.80077   1270.85824  261.00000  21.36215             15.89491
889.53462   774.25385   260.00000  22.93024             14.75909
886.43396   1101.24528  53.00000   8.69068              7.82147
891.46559   1464.80972  247.00000  22.09489             14.36408
892.37073   744.12195   205.00000  19.76468             13.50460
904.57248   1224.21130  407.00000  31.79802             16.48555
900.47126   1527.95402  435.00000  24.23265             22.96335
900.80727   591.56000   275.00000  21.01705             16.83726
894.50000   614.00000   26.00000   6.20174              5.20355
902.07035   958.51256   199.00000  17.45372             14.63490
905.34586   328.73684   266.00000  19.64847             17.41743
904.51942   881.74757   206.00000  18.13115             14.63547
906.53306   1475.72314  242.00000  18.88933             16.36764
908.48699   1285.62825  269.00000  23.53068             14.65959
907.43478   671.31884   207.00000  17.61689             14.97853
909.54516   815.69355   310.00000  21.34724             18.75544
912.34783   1298.28502  207.00000  25.58197             10.50001
913.14493   1070.86377  345.00000  23.81012             18.83456
914.97161   1310.73817  317.00000  24.96936             16.28382
915.65897   839.63077   390.00000  27.74320             18.70625
921.35714   1412.65848  448.00000  37.80772             15.25701
920.84308   1345.81538  325.00000  23.58864             17.79689
918.25743   1437.57921  202.00000  18.37938             14.01301
922.91081   1109.52162  370.00000  27.21234             17.56909
917.15517   795.13793   58.00000   10.42892             7.09029
924.92620   308.06642   271.00000  20.08807             17.47539
927.27143   997.08095   210.00000  18.47225             14.63873
935.92606   718.35563   284.00000  27.63936             16.08200
930.93277   597.17647   238.00000  19.58090             15.61354
932.78788   1519.21717  198.00000  17.81217             14.23751
935.39419   631.80913   241.00000  18.36498             16.91690
937.42529   787.18391   348.00000  25.04369             17.98337
938.61500   825.02500   400.00000  27.37106             19.13436
942.33538   1269.76000  325.00000  27.95135             15.20487
937.20504   1884.51799  278.00000  25.25189             14.17144
936.67532   561.31169   77.00000   13.45022             7.33298
939.25256   1323.54949  293.00000  21.41291             17.48614
942.92055   473.03288   365.00000  23.66798             19.77777
944.61190   988.42776   353.00000  22.68334             20.28950
944.03611   948.63889   360.00000  24.79298             19.29769
941.82036   1940.83234  167.00000  16.81604             12.76375
939.49206   688.17460   63.00000   10.59981             7.54961
942.44785   1861.03681  163.00000  16.83027             12.42358
945.58519   1237.03704  135.00000  15.08279             11.60400
950.67568   805.28378   296.00000  23.71773             16.52224
952.20678   1381.38983  295.00000  20.21869             19.04199
949.48416   1476.73756  221.00000  18.41459             15.35391
948.45977   1099.48276  87.00000   12.75486             8.71227
951.60606   1287.87121  264.00000  20.25878             16.85724
950.62766   1761.64894  188.00000  16.46036             14.58994
957.67025   1552.95699  279.00000  25.35986             14.52462
956.02871   1453.66029  209.00000  18.78618             14.19126
958.20805   552.58389   298.00000  24.87383             15.73279
956.90000   845.16750   400.00000  29.37022             17.43163
961.98820   442.88496   339.00000  28.23848             17.52779
966.72254   689.08478   519.00000  33.07926             22.43861
960.90826   1792.32569  218.00000  18.83588             14.77419
968.70482   1254.00000  166.00000  18.99162             11.16132
968.64865   629.46718   259.00000  21.43408             15.63806
971.96226   1494.43019  265.00000  20.64568             16.56897
974.07782   894.70817   257.00000  24.18451             13.94320
977.04795   949.33562   584.00000  30.24980             25.22856
973.44269   504.00395   253.00000  20.47975             15.78378
974.39181   975.18713   342.00000  22.67149             19.27438
968.00000   474.58333   36.00000   7.11805              6.42045
979.06718   1437.49354  387.00000  23.89435             20.95536
979.18082   567.38630   365.00000  22.22665             21.08371
979.93668   1112.38865  458.00000  28.71656             20.71781
976.07143   1838.88095  126.00000  13.69471             11.95044
975.19643   458.69643   56.00000   9.27585              7.70035
989.14508   1311.10622  386.00000  26.84652             18.56932
987.75100   1381.31727  249.00000  20.05404             15.90295
984.09677   447.25806   62.00000   9.50536              8.30355
989.28340   778.74899   247.00000  18.44768             17.16971
989.04082   396.32653   294.00000  22.90769             16.49846
994.22807   862.37719   228.00000  23.30056             12.80665
995.89899   897.83838   297.00000  22.17783             17.08940
996.62132   655.43750   272.00000  20.44279             17.14729
998.81040   1542.50459  327.00000  21.41271             19.59506
999.66255   604.98765   243.00000  19.45392             16.02777
998.31760   1469.34764  233.00000  19.05546             15.65627
995.56164   964.76712   73.00000   10.78634             8.60950
1000.63014  453.15068   219.00000  18.66114             15.10887
1003.86977  1881.61860  215.00000  18.56399             14.93234
1009.92405  727.88924   316.00000  23.54503             17.20837
1004.71074  1216.48760  121.00000  13.91271             11.16833
1002.48718  715.28205   39.00000   7.52927              6.76217
1005.73134  758.02985   134.00000  13.50685             12.71650
1004.26786  676.12500   56.00000   10.12175             7.14208
1008.70984  798.12953   193.00000  18.06923             13.83588
1008.55729  815.65104   192.00000  16.31061             15.43415
1022.60087  1274.63135  689.00000  44.25752             20.98857
1016.42593  583.59877   324.00000  24.44860             17.08793
1014.86787  627.99099   333.00000  21.99793             19.34893
1012.84982  1326.33333  273.00000  21.62033             16.49746
1017.99694  482.11009   327.00000  21.36163             19.87239
1017.14458  889.91165   249.00000  21.51229             14.77839
1019.73333  538.36667   300.00000  20.52639             18.66240
1019.27869  750.30055   183.00000  19.44169             12.01863
1029.29630  433.31173   324.00000  31.68443             14.62288
1020.31641  504.61719   256.00000  20.91734             15.64308
1017.06757  1238.97297  74.00000   11.43832             8.36331
1021.84532  279.73741   278.00000  22.82893             15.64907
1024.12167  418.30418   263.00000  21.94618             15.38138
1020.75481  820.89423   208.00000  18.33769             14.60412
1022.26838  376.71691   272.00000  21.99350             15.81785
1019.66019  1105.76699  103.00000  12.40495             10.65537
1025.06149  931.18123   309.00000  23.49085             17.00814
1025.39009  1506.50464  323.00000  22.04775             19.26755
1022.71233  1183.75342  146.00000  17.02434             10.98123
1023.85169  1904.47034  236.00000  17.85512             16.88289
1024.34375  1794.29167  192.00000  17.45014             14.30878
1033.01613  1300.22120  434.00000  30.05242             19.89814
1029.47500  616.94583   240.00000  19.64200             15.60560
1025.30263  1229.97368  76.00000   11.09665             8.79106
1032.68254  345.32937   252.00000  20.70520             15.92872
1029.47333  847.06000   150.00000  14.41941             13.22869
1036.77524  970.42671   307.00000  23.61481             16.66767
1035.66492  306.45026   191.00000  18.05203             13.47541
1037.63725  400.66993   306.00000  20.70702             18.95018
1036.75000  944.92424   264.00000  19.35533             17.42623
1041.34532  452.90288   278.00000  21.98071             16.48626
1037.51542  1477.12775  227.00000  17.25076             16.80770
1039.66667  1556.93506  231.00000  23.26534             12.79796
1037.19802  1354.40594  101.00000  12.18387             10.55547
1040.76000  1957.24444  225.00000  19.01621             15.11172
1040.84390  1977.37561  205.00000  16.64070             15.74215
1043.77642  234.54878   246.00000  19.84962             15.85658
1042.43728  1458.85305  279.00000  20.09521             17.85976
1052.13443  833.37028   424.00000  27.59479             21.57145
1050.53878  345.55510   245.00000  21.61604             14.66374
1052.70440  777.78616   159.00000  22.29827             9.32858
1048.77000  1497.78000  200.00000  18.78337             13.57514
1052.43450  709.81470   313.00000  22.52551             17.84875
