# Filename: Nuclei_ctrl_pfa_003.npz
# Voxel size (nm): (108, 108)
# Area quantity: voxels
# Num nuclei detected: 514
Y           X           AREA       MAJOR_AXIS_LENGTH    MINOR_AXIS_LENGTH
198.92908   285.18440   141.00000  14.93158             12.25605
208.28395   1264.95062  162.00000  16.92010             12.32425
235.39394   1261.72727  132.00000  14.03073             12.07848
240.33962   1225.60849  212.00000  17.98041             15.07314
251.14286   1210.48447  161.00000  15.45438             13.30995
258.40476   1275.57143  126.00000  13.79691             11.65739
274.97115   1215.61538  104.00000  12.97383             10.23904
299.06667   1171.39524  210.00000  19.49975             13.74769
299.90541   1220.51351  148.00000  15.18284             12.44817
335.14159   1152.27434  113.00000  13.40986             10.73722
357.20000   1105.41429  140.00000  16.70951             10.80372
382.01186   1322.79051  253.00000  21.53587             15.04907
379.11039   1336.48701  154.00000  14.88455             13.34918
380.73636   1094.31818  110.00000  12.52744             11.22515
400.12946   1361.02679  224.00000  18.57659             15.44537
405.03750   1076.98125  160.00000  15.79283             12.88637
405.50000   1109.65038  266.00000  20.78759             16.42467
411.54924   1156.59091  264.00000  19.04251             17.84783
417.04327   861.10096   208.00000  19.88007             13.53533
419.17726   778.47157   299.00000  26.76724             14.42926
423.59195   886.88506   174.00000  16.41900             13.53415
431.03861   998.62934   259.00000  20.60276             16.15918
434.08970   1016.19269  301.00000  24.03220             16.10316
435.18650   1170.75563  311.00000  22.88603             17.42501
430.54348   1304.47391  230.00000  24.92981             11.87299
434.83505   1107.44330  194.00000  17.31212             14.51517
443.84270   1389.92509  267.00000  22.97776             14.90499
449.78947   1236.67048  437.00000  30.07062             18.83186
445.65574   959.69945   183.00000  18.26141             12.86029
443.28829   1041.25225  111.00000  14.78666             9.64121
448.09127   1206.03571  252.00000  19.97459             16.17676
447.44805   1133.47403  154.00000  15.14725             12.99801
447.15934   1296.82418  182.00000  16.88938             13.78651
458.96018   1025.11504  226.00000  21.69718             13.33585
466.14074   1041.63704  135.00000  19.04861             9.26322
466.69767   920.89369   301.00000  20.68911             18.78940
466.35829   1150.60963  187.00000  17.88208             13.41146
464.22826   1282.10870  92.00000   13.12047             8.95667
469.51232   1079.28571  203.00000  18.40117             14.07683
474.14286   1392.01071  280.00000  25.32018             14.15386
469.50000   1132.00000  48.00000   8.60259              7.02345
477.59221   885.23636   385.00000  25.24481             19.61439
477.78322   1047.91608  143.00000  13.72049             13.29924
482.87831   1339.03175  189.00000  17.87621             13.53255
486.80899   1139.15730  89.00000   13.31092             8.56418
492.82482   1130.92701  137.00000  14.80716             11.84682
500.56571   1190.09714  175.00000  16.52125             13.50533
503.35242   900.84581   227.00000  17.10714             16.94017
502.26543   1207.14198  162.00000  16.34348             12.66019
501.14286   1156.58095  105.00000  11.63811             11.52427
509.38435   1290.36054  294.00000  24.69545             16.11029
514.06102   717.10847   295.00000  23.11768             16.81313
511.43902   1091.69756  205.00000  18.33924             14.30684
520.54795   1131.34247  219.00000  19.58695             14.39526
518.39490   1226.61783  157.00000  16.25606             12.32073
516.02857   1236.55714  70.00000   10.23995             8.84749
518.63587   887.82609   184.00000  15.66322             14.98308
521.47761   1264.13433  268.00000  20.28402             16.98531
519.62264   663.96226   106.00000  13.18653             10.43051
521.71809   1015.64894  188.00000  16.78127             14.31547
521.88889   1321.80247  162.00000  17.17466             12.23279
524.95736   1404.81395  258.00000  20.71260             15.88678
524.55801   1084.25414  181.00000  16.75349             14.08346
520.63333   1152.36667  30.00000   6.49102              5.79348
526.10811   1343.85405  185.00000  16.03875             14.77044
529.05455   1064.24091  220.00000  24.44692             12.28707
528.05556   1000.20833  216.00000  17.88060             15.44595
526.66883   1101.77273  154.00000  15.45712             13.01159
533.95954   1158.40462  173.00000  15.51393             14.21232
539.78646   1304.38542  192.00000  16.73839             14.63341
544.47951   1337.35246  244.00000  22.71001             14.43921
539.96129   1238.99355  155.00000  16.53889             12.01673
543.18478   937.25543   184.00000  16.93334             13.89159
544.83459   1356.07895  266.00000  21.36740             16.18252
543.45890   1107.89041  146.00000  15.93221             11.69593
542.72222   1171.50000  18.00000   5.92007              3.85088
546.25490   1749.86275  102.00000  13.03689             10.01922
551.46154   927.52941   221.00000  22.46134             12.79540
548.53695   1076.19212  203.00000  18.86335             13.75203
551.03333   1162.21667  60.00000   9.23284              8.36575
556.15884   1236.35740  277.00000  23.06454             15.80539
555.11029   1175.72059  136.00000  14.44835             12.01133
557.84444   1423.67111  225.00000  21.14739             13.61384
558.40000   971.22353   170.00000  16.65281             13.03686
562.90598   889.66239   234.00000  19.51328             15.29991
565.17431   1392.61468  109.00000  12.87703             11.06359
568.88889   1139.01481  135.00000  15.81004             10.95330
574.58400   1328.52000  250.00000  21.24734             15.15200
573.17978   1434.40449  178.00000  18.12673             12.58389
574.40777   1400.33495  206.00000  17.73515             15.05457
573.60714   1311.95714  140.00000  14.16284             12.64011
577.26168   984.71963   107.00000  14.33704             9.51647
582.15589   1295.33080  263.00000  26.18911             13.11859
581.66379   1279.25431  232.00000  18.43327             16.12212
592.64634   678.73171   246.00000  22.78174             13.84886
592.22727   1098.42562  242.00000  19.39847             15.91738
593.11111   1230.66667  162.00000  15.28115             13.50144
595.14754   646.42077   183.00000  16.71310             14.09044
592.70253   1177.65823  158.00000  16.11344             12.55505
593.62891   1634.19922  256.00000  22.61306             14.67349
597.10526   858.44737   190.00000  17.10224             14.14389
594.88462   1205.56410  78.00000   13.21813             7.59738
598.35928   1272.00000  167.00000  14.86138             14.36300
597.62821   1248.05128  78.00000   11.84386             8.42661
605.36056   1411.78310  355.00000  24.73835             18.41458
605.19048   1372.40816  147.00000  15.30354             12.20451
605.54795   1223.14384  146.00000  14.71211             12.67106
609.87349   1178.94578  166.00000  15.40316             13.72820
609.15789   1261.63158  57.00000   9.07510              7.95503
616.71375   1060.66543  269.00000  22.99775             15.03953
614.18966   1111.82512  406.00000  29.83114             17.63320
616.21925   1282.98930  187.00000  19.24060             12.49691
619.48413   843.59127   252.00000  19.22240             16.90347
618.71351   938.18378   185.00000  17.54197             13.48808
621.17593   1244.24537  216.00000  17.80021             15.73359
622.27311   1201.24370  238.00000  19.93816             15.27309
631.68601   1023.97611  293.00000  23.79364             15.79831
632.51292   632.83395   271.00000  24.41661             14.20066
635.90000   1099.14348  230.00000  20.41185             14.98454
628.77143   1337.57143  35.00000   7.07588              6.24158
636.90984   1130.16803  244.00000  21.67185             15.04021
635.81176   840.60588   170.00000  15.03308             14.53722
638.48571   1303.14286  105.00000  15.95048             8.49398
641.58741   1329.14336  286.00000  22.41777             16.75365
637.27119   1270.62712  59.00000   9.82249              7.68327
636.41667   1351.25000  48.00000   8.12474              7.49739
643.95213   943.73936   188.00000  21.09370             11.39131
643.76587   993.16667   252.00000  19.98225             16.11735
641.53043   1261.99130  115.00000  13.11643             11.23406
644.27723   1588.57426  202.00000  18.38855             14.23664
642.32579   1203.79638  221.00000  22.00456             13.10551
646.55833   1425.31250  240.00000  22.20923             13.81303
645.85938   961.07031   128.00000  15.64218             10.81905
650.96887   1408.63813  257.00000  19.81972             16.80357
651.70492   1150.49180  244.00000  20.15432             15.49032
652.97129   594.88995   209.00000  18.29164             14.82218
654.36029   847.05515   272.00000  20.59894             17.06646
655.57767   1062.64078  206.00000  20.87535             12.70733
654.08108   903.94595   148.00000  16.32932             11.89191
660.07090   1165.52239  268.00000  25.83761             13.46864
659.92308   1250.31538  260.00000  20.43259             16.34319
659.19789   1191.55937  379.00000  28.20853             17.24806
659.81364   1367.17727  220.00000  20.85718             13.48372
659.00912   1085.49848  329.00000  28.50716             15.02652
657.78846   1305.92308  52.00000   9.06584              7.25894
663.20805   909.71812   149.00000  14.93719             12.85504
675.58528   989.43478   299.00000  30.37710             13.60273
675.76518   1035.37247  247.00000  24.13483             13.07697
676.95676   1565.01081  185.00000  16.73501             14.21817
684.05994   1094.67823  317.00000  33.66581             12.18951
679.43056   1123.91204  216.00000  21.66018             13.07692
678.01579   551.33158   190.00000  16.60787             14.60118
683.52553   801.13514   333.00000  24.49473             17.67321
691.22519   1065.97328  524.00000  32.71544             21.30888
682.36967   1391.21801  211.00000  18.29333             14.72656
681.83575   1234.82126  207.00000  20.92567             12.73948
686.47312   1360.84946  186.00000  17.77616             13.62081
692.10769   1179.39385  325.00000  25.55859             16.86559
695.27273   1001.21104  308.00000  22.84356             17.28174
699.84366   1319.01475  339.00000  22.06477             19.63973
697.44248   1384.95133  226.00000  18.17605             15.91072
695.83333   1107.55556  180.00000  17.37595             13.38923
697.11413   1246.96196  184.00000  16.40919             14.30971
706.53623   879.71498   207.00000  20.92551             12.73629
708.11765   1400.00452  221.00000  17.57354             16.06826
716.71916   1218.96325  381.00000  23.14847             21.02913
716.41667   1414.49583  240.00000  23.22707             13.36632
714.49333   806.03111   225.00000  18.30451             15.79268
712.50000   896.53289   152.00000  18.75492             10.38338
716.35294   1160.12217  221.00000  19.63861             14.74007
715.37186   1263.83417  199.00000  18.73782             13.58429
715.96279   1577.49767  215.00000  17.58484             15.80867
723.02065   996.35988   339.00000  24.12486             18.03259
722.73077   1200.76923  156.00000  16.24100             12.39780
729.32344   1291.89911  337.00000  26.88755             16.54758
726.77315   870.07407   216.00000  17.03805             16.50525
731.93173   1237.40562  249.00000  21.68626             14.72625
733.36792   1611.71698  212.00000  18.06054             15.05812
734.51938   1264.79845  258.00000  19.73693             16.69143
733.65753   1375.52055  219.00000  18.29019             15.32140
733.66990   1579.22816  206.00000  17.39402             15.28111
734.04902   1136.34804  204.00000  20.05210             13.18702
737.41833   1098.88446  251.00000  19.11050             16.77310
741.20130   1172.31169  308.00000  26.23026             15.49040
735.51724   1030.50575  174.00000  18.57581             11.92469
745.11684   993.67010   291.00000  21.50541             17.33432
747.00000   1188.13084  214.00000  21.16960             13.12002
743.88372   1349.74419  43.00000   8.30300              6.77421
752.93233   784.43609   266.00000  20.04607             16.95199
753.68750   1119.32917  240.00000  23.04488             13.32306
755.43307   1273.94094  254.00000  19.55276             16.79013
754.02283   1314.45662  219.00000  20.04589             14.16683
756.00633   888.39241   158.00000  17.41946             11.58007
766.29258   1142.31441  229.00000  17.97243             16.31931
768.86517   1361.54213  356.00000  31.15088             15.97611
767.17769   1229.81405  242.00000  18.56739             16.87226
770.77733   1563.05263  247.00000  21.04608             15.03404
769.16162   976.69192   198.00000  18.59773             13.61765
769.37681   1059.45652  138.00000  14.17570             12.60065
778.50388   791.07752   387.00000  27.73531             17.98333
776.05747   879.08046   174.00000  16.62258             13.35433
781.02473   1342.87986  283.00000  22.09037             16.34525
783.39189   1176.63176  296.00000  24.39713             15.96928
783.16412   1276.15649  262.00000  20.32292             16.58715
785.46734   1069.10553  199.00000  19.36897             13.14872
784.08756   1246.30876  217.00000  17.87340             15.90524
789.00995   1112.70647  201.00000  19.90740             12.95714
790.47208   841.69036   197.00000  17.63408             14.27363
791.68284   1542.59328  268.00000  21.30132             16.10500
790.68208   930.55491   173.00000  15.57924             14.14021
790.74611   1004.54404  193.00000  18.94094             13.23491
792.21788   1098.56983  179.00000  16.47121             13.88605
796.15764   1360.50246  203.00000  18.35469             14.16957
796.07080   1507.07965  226.00000  19.31731             15.03405
799.27160   1297.76132  243.00000  20.58296             15.28424
800.74180   1336.96721  244.00000  21.13212             14.91909
802.89189   1226.02252  222.00000  18.76257             15.11951
798.18333   1269.43333  60.00000   10.18552             7.56612
805.90449   930.97753   178.00000  16.34214             14.01823
805.83333   1166.42708  192.00000  19.74334             12.54342
807.52615   1472.15692  325.00000  23.33748             17.81280
810.54023   1200.63985  261.00000  22.95069             14.83627
811.41102   1430.69915  236.00000  20.22293             14.91787
812.33158   1017.76316  190.00000  17.50983             13.97033
808.04478   1281.07463  67.00000   10.51612             8.21214
814.49794   1453.61728  243.00000  20.70157             15.00502
815.56827   1315.94465  271.00000  21.60489             16.04922
812.88618   1132.55285  123.00000  14.89335             10.53764
814.54396   1236.07143  182.00000  15.47684             15.29931
819.13099   807.36741   313.00000  24.15152             16.69673
819.35714   1266.40336  238.00000  19.25714             15.85589
825.66364   1124.13636  220.00000  25.51532             11.54071
822.06800   1250.00000  250.00000  21.85797             14.92526
820.43353   861.53179   173.00000  16.52655             13.36159
826.74380   1110.67355  242.00000  21.69358             14.58479
826.72800   912.56000   125.00000  12.97159             12.32625
827.35616   1185.44521  146.00000  15.27675             12.52705
837.26923   1033.22378  286.00000  22.43845             17.16750
834.19681   999.23404   188.00000  23.81439             10.10456
838.36364   826.62937   286.00000  19.98330             18.58916
843.63934   1215.16803  244.00000  24.11856             13.09078
842.99816   1301.46691  544.00000  35.08386             20.90355
842.52695   1184.44910  167.00000  20.32323             10.51447
841.76238   323.01980   202.00000  18.02254             14.37205
845.69307   840.92574   202.00000  22.08875             11.69566
846.30120   965.57831   249.00000  24.10034             13.95810
848.44776   1150.05597  268.00000  22.48030             15.47571
849.26087   1355.66184  207.00000  17.32611             15.24417
853.06103   1268.02817  213.00000  16.93731             16.25858
861.23985   339.12915   271.00000  19.53458             18.29410
856.52381   977.94048   84.00000   11.54590             9.29709
858.55705   1312.60403  149.00000  16.92346             11.34816
862.35974   850.68647   303.00000  22.21719             17.45131
864.15200   972.72000   125.00000  17.19555             9.35184
859.65957   1245.95745  47.00000   9.65957              6.18517
865.16319   1209.53472  288.00000  29.94716             12.40966
867.66118   1038.19737  304.00000  20.22484             19.58573
871.88727   868.87273   275.00000  23.59600             15.13776
869.55985   1015.96911  259.00000  20.04089             16.90870
868.17964   1158.06587  167.00000  14.94636             14.44283
870.98101   657.83544   158.00000  19.49228             10.42232
872.25258   1132.25773  194.00000  19.84693             12.53676
871.40449   1189.87640  89.00000   11.10918             10.19882
885.20876   993.12371   388.00000  36.53643             15.18895
876.40000   1225.36444  225.00000  19.65590             14.70541
880.09314   1062.43627  204.00000  20.68090             12.64983
875.76744   1171.22093  86.00000   11.26192             9.76406
876.25000   1249.62500  80.00000   10.74203             9.55818
887.20729   907.46469   439.00000  29.64143             19.06456
877.80952   802.07143   42.00000   8.83185              6.12590
883.11458   1213.87500  192.00000  20.51786             12.06472
879.72174   1304.77391  115.00000  13.62512             11.08326
885.27195   1358.75637  353.00000  23.73178             18.98191
886.56098   1312.70244  205.00000  20.40441             13.09472
885.36765   1196.48529  68.00000   10.62569             8.13051
893.81962   883.57911   316.00000  23.44384             17.46587
895.27857   1271.73571  280.00000  24.28617             15.20695
888.75281   1335.44944  89.00000   14.24724             8.08369
892.55000   1089.67222  180.00000  17.99404             12.89142
895.31224   1036.33755  237.00000  23.84303             13.20052
894.45600   363.32800   125.00000  13.38508             11.91366
897.51961   1102.61765  204.00000  18.00336             14.63961
901.13333   1197.28627  255.00000  23.53201             13.88827
901.53368   814.13990   193.00000  17.80650             13.86412
905.11732   370.87709   179.00000  16.44937             13.92943
904.25000   1146.89674  184.00000  16.19853             14.51843
903.93137   1222.42157  102.00000  13.76014             9.52470
909.52098   1161.09790  286.00000  20.29442             18.45285
910.99320   1325.31293  294.00000  25.87493             14.58153
911.21429   1000.78061  196.00000  17.15343             14.61373
913.01333   1127.73667  300.00000  25.17843             16.89105
913.62460   883.28155   309.00000  21.46569             18.37435
909.45455   836.65455   55.00000   8.51338              8.19633
914.19200   957.82000   250.00000  22.25251             14.46339
914.09589   1013.40411  146.00000  19.61561             9.89129
913.71429   1210.63095  84.00000   11.68421             9.19594
915.46341   1368.20732  82.00000   13.45323             7.83109
916.29167   1283.11250  240.00000  23.29073             13.21784
928.27338   1349.23741  278.00000  27.22532             14.57483
919.43137   1096.57843  204.00000  18.82805             13.85065
918.06283   1223.27749  191.00000  17.84685             13.89663
920.86935   759.41709   199.00000  18.07565             14.29423
919.10000   1406.48889  90.00000   11.26316             10.14568
927.45339   373.16525   236.00000  20.31680             14.97263
925.74500   1073.68500  200.00000  18.63202             13.73971
