# Filename: Nuclei_416_ctrl_60x_002.npz
# Voxel size (nm): (108, 108)
# Area quantity: voxels
# Num nuclei detected: 1083
Y           X           AREA       MAJOR_AXIS_LENGTH    MINOR_AXIS_LENGTH
17.77143    1306.44762  105.00000  16.05525             8.48845
23.80000    1345.97037  135.00000  15.07345             11.48219
34.19767    1121.75581  86.00000   12.12149             9.28876
50.43426    812.44223   251.00000  20.93538             15.40301
53.53403    920.19895   191.00000  18.49337             13.21046
50.85417    1030.28125  96.00000   13.70089             9.53134
54.31183    1245.65054  186.00000  18.84383             12.58188
53.43558    257.73620   163.00000  17.07367             12.48497
55.29412    1439.10000  170.00000  15.71500             13.81092
58.23077    301.92308   65.00000   10.24612             8.32658
69.20417    1093.90000  240.00000  24.81241             13.92302
69.01646    549.81070   243.00000  23.16881             13.58932
67.80588    973.04118   170.00000  16.25472             13.35141
67.97945    1389.40411  146.00000  15.53170             12.00383
72.55212    661.33205   259.00000  22.16342             15.01178
78.40426    945.68617   188.00000  18.00763             13.78724
81.24786    1020.79915  234.00000  17.95977             16.69811
84.39614    208.66184   207.00000  16.98218             15.62543
91.17757    1268.78505  107.00000  13.79796             9.93806
101.24706   1109.73235  340.00000  26.02705             16.66131
101.21194   778.36119   335.00000  22.12281             19.33589
99.65116    571.56977   86.00000   13.07984             8.65944
103.53725   699.73333   255.00000  20.02478             16.48758
106.86792   1026.62642  265.00000  20.20941             16.71232
113.21942   1001.37410  278.00000  21.28916             16.71749
116.60428   585.83957   187.00000  19.05611             13.48641
118.21162   729.82988   241.00000  19.21597             16.23960
117.00000   153.26230   122.00000  13.85044             11.35344
119.27404   397.69231   208.00000  18.83506             14.14706
126.78082   1203.94521  219.00000  20.15587             14.26726
132.46667   330.89231   195.00000  19.39954             14.12211
134.76471   441.86975   238.00000  19.97598             15.26036
138.25000   171.56098   164.00000  14.69557             14.29157
138.95620   1415.55474  137.00000  15.69352             11.27622
139.82143   864.36607   112.00000  15.35419             9.41246
141.74877   1288.47783  203.00000  18.19625             14.30963
150.30000   1541.07895  190.00000  17.88710             13.72306
154.11739   843.64348   230.00000  17.61594             16.68058
152.08451   1134.28169  71.00000   10.08122             9.04289
156.91866   1364.96651  209.00000  17.72483             15.24673
164.77982   279.25688   218.00000  18.71686             15.08368
165.21586   1122.06608  227.00000  20.01418             14.46218
174.00866   1581.70563  231.00000  22.91952             13.03710
172.56684   381.52406   187.00000  18.21624             13.21246
173.80769   1408.01923  156.00000  14.90918             13.35860
178.45306   1289.18776  245.00000  18.96248             16.59322
180.58921   422.00830   241.00000  17.92588             17.14604
182.24400   1310.68000  250.00000  23.19267             13.91133
180.82313   141.76190   147.00000  14.22800             13.30414
183.22569   449.00000   288.00000  22.96198             15.97878
182.16204   1147.94907  216.00000  17.80987             15.74257
183.02439   1420.19024  205.00000  19.18543             13.61900
185.36245   1170.69869  229.00000  21.22088             13.90634
185.08676   804.01826   219.00000  19.66052             14.30921
190.06667   383.20000   210.00000  17.11200             15.75865
193.79487   1231.28846  156.00000  19.48528             10.40520
193.05419   1468.61576  203.00000  21.03226             12.39750
200.31655   1089.03597  278.00000  24.45319             14.59330
199.73305   1185.80508  236.00000  21.96724             13.77657
204.60262   765.56332   229.00000  18.16370             16.08535
204.73191   360.81277   235.00000  19.26261             15.60819
208.97143   1477.31429  105.00000  13.67579             10.15069
216.94012   1233.20359  167.00000  19.54924             10.93279
217.50704   251.13615   213.00000  18.65443             14.57944
219.28472   752.06250   288.00000  21.37465             17.18489
218.55114   1203.89205  176.00000  16.74041             13.41585
220.15063   1457.89540  239.00000  19.42841             15.79918
220.25352   15.08451    142.00000  15.43464             11.90377
225.62319   315.79227   207.00000  16.98013             15.77737
227.51111   1146.67778  270.00000  21.00385             16.74528
225.59862   1339.50519  289.00000  21.80190             16.98062
229.97887   1090.03521  142.00000  15.48322             12.22400
236.32743   451.50000   226.00000  22.87673             12.72730
239.52451   270.42647   204.00000  18.63985             13.94910
243.14391   504.12177   271.00000  20.43023             17.01009
243.58706   230.78109   201.00000  17.50033             14.74070
243.79638   378.97738   221.00000  17.83083             15.88920
245.69178   338.60959   146.00000  16.64520             11.59915
250.94048   1369.64286  252.00000  23.21945             13.93969
256.64463   285.77686   121.00000  14.42033             10.83675
263.99303   470.70035   287.00000  24.64578             15.08669
264.95359   1205.30380  237.00000  19.32144             15.79797
266.44000   277.14400   125.00000  15.49226             10.99893
270.00413   1418.12397  242.00000  19.05454             16.34698
270.72000   177.54667   150.00000  14.71444             13.15989
273.25466   158.94410   161.00000  15.44359             13.32668
273.08553   246.00000   152.00000  15.03112             13.08880
273.65193   408.77348   181.00000  16.99569             13.64792
275.14286   146.22449   147.00000  14.63088             12.87466
277.55102   507.57143   196.00000  17.66603             14.13464
281.53500   1062.42500  200.00000  19.37571             13.21183
283.90625   1251.03125  192.00000  19.75957             12.88033
286.16055   1407.77523  218.00000  20.06751             13.93171
285.48889   99.20556    180.00000  16.61622             13.84441
285.42574   130.96040   101.00000  12.12210             10.76070
289.12121   365.74747   198.00000  17.62866             14.62443
291.60993   1207.59220  282.00000  20.37982             17.85502
297.15764   263.50246   203.00000  18.40196             14.11371
298.02128   324.54255   94.00000   13.08025             9.53485
304.21284   462.30068   296.00000  24.11948             15.72993
301.50000   168.97642   212.00000  19.26595             14.01291
303.98315   1073.80337  178.00000  17.74923             12.82660
307.53552   1310.85792  183.00000  15.62890             14.93175
309.72889   199.96444   225.00000  19.05181             15.11765
310.67914   379.82888   187.00000  18.05810             13.38540
314.66495   1203.78351  194.00000  16.95420             14.90826
318.87687   1404.82090  268.00000  24.09005             14.37203
318.33784   1057.22973  148.00000  15.02511             12.67078
321.66505   1292.90777  206.00000  19.42344             13.79401
320.66337   325.55446   202.00000  18.51159             14.79279
323.59247   1231.81164  292.00000  24.29635             15.39247
321.71910   94.97191    178.00000  15.63794             14.55327
323.97790   243.05525   181.00000  16.57209             14.06711
325.41799   535.75132   189.00000  18.83496             12.78472
329.93893   1077.93130  262.00000  23.09324             14.70948
331.29213   349.93258   267.00000  20.08046             17.00793
330.78636   1314.86364  220.00000  17.81146             15.90130
337.86029   1257.21324  136.00000  21.74083             8.31385
337.31390   527.96413   223.00000  18.44815             15.41609
341.71721   412.88115   244.00000  21.23397             14.73949
342.47699   454.77406   239.00000  18.46549             16.49469
343.95904   1209.32082  293.00000  19.77730             19.08568
345.03333   1392.04444  270.00000  23.54357             14.88396
342.49219   241.58594   128.00000  13.39232             12.18715
347.95319   273.54468   235.00000  20.48629             14.68790
346.79459   95.08108    185.00000  17.56674             13.52124
351.19565   527.03261   92.00000   12.66899             9.42233
354.54967   341.50993   151.00000  15.02999             12.83693
356.90000   296.40000   80.00000   11.28857             9.13500
359.73934   622.08057   211.00000  18.63402             14.56931
363.37748   711.39404   302.00000  22.47579             17.17254
363.30159   382.32275   189.00000  16.65102             14.66386
365.31818   690.57343   286.00000  23.83165             15.47014
365.31844   254.94972   179.00000  17.36139             13.19314
367.40099   651.33663   202.00000  17.68730             14.65651
369.99123   140.63158   114.00000  14.28594             10.36451
373.79899   1082.67839  199.00000  19.67370             12.94872
375.09326   571.94819   193.00000  21.18089             11.64662
376.66667   435.23704   135.00000  14.99392             11.62127
378.29126   562.15534   103.00000  12.61446             10.46055
382.43043   1367.27826  230.00000  22.29119             13.19205
381.41791   357.71642   201.00000  17.77956             14.62381
384.72685   1221.14815  216.00000  20.76583             13.26839
389.54225   211.21831   142.00000  15.30520             11.92709
395.18182   296.29545   264.00000  19.30068             17.44552
393.84574   265.21277   188.00000  16.85487             14.27987
395.76498   625.70046   217.00000  17.66288             15.95235
397.84739   524.95582   249.00000  19.85196             16.18672
404.60201   550.43144   299.00000  27.15146             14.07581
402.24876   450.43781   201.00000  18.28228             14.03938
405.38971   1326.17647  272.00000  25.31296             13.77453
404.17935   19.19565    184.00000  16.43238             14.27912
414.86000   1353.30800  250.00000  23.67427             13.53875
414.58854   143.79167   192.00000  17.41042             14.07329
417.38868   667.32453   265.00000  23.67044             14.35561
422.70229   1072.25573  262.00000  22.65934             14.90729
425.40079   1220.14286  252.00000  21.09062             15.23061
428.65269   95.41916    167.00000  14.91721             14.33869
429.80603   454.85776   232.00000  20.14418             14.92661
429.09868   168.38816   152.00000  14.41659             13.42094
428.47619   315.95238   147.00000  15.28322             12.24398
430.56849   113.00000   146.00000  15.87083             11.73862
431.38806   230.24627   134.00000  14.17821             12.15392
433.25128   1366.00513  195.00000  17.38304             14.37657
431.26966   264.74157   89.00000   12.53145             9.04486
438.72917   200.45139   144.00000  15.94340             11.51989
441.28319   158.16814   113.00000  12.52379             11.53079
441.74453   325.36496   137.00000  13.67592             12.78850
442.50251   699.67337   199.00000  19.44568             13.08179
442.08264   131.50413   121.00000  14.87634             10.41168
444.42241   306.91379   116.00000  14.37477             10.26103
445.31690   343.38028   142.00000  15.22604             12.10607
451.47727   496.95833   264.00000  26.68083             13.10703
447.59770   291.62069   174.00000  18.02694             12.30550
448.02941   101.72059   136.00000  14.21726             12.25780
447.36170   193.06383   94.00000   11.70167             10.39526
453.22917   1413.54861  288.00000  25.45603             14.61358
448.60714   183.61905   84.00000   11.24420             9.50265
451.08187   353.61988   171.00000  15.48628             14.23616
450.23200   210.80000   125.00000  14.70926             10.92193
454.52985   145.41045   134.00000  14.54563             11.73774
461.16116   587.37190   242.00000  21.22737             14.56339
461.69818   1207.87636  275.00000  25.90871             14.10288
460.88177   34.71429    203.00000  17.29471             15.29395
462.74497   132.48322   149.00000  14.46095             13.11630
470.83333   242.09877   162.00000  17.73308             11.76305
470.55978   276.69022   184.00000  18.24018             12.93660
473.21154   430.33333   312.00000  21.05170             18.92967
472.75714   650.41429   210.00000  17.42461             15.51306
475.61091   1344.36727  275.00000  22.16958             15.88647
473.24424   152.13364   217.00000  21.60619             13.00501
474.74211   202.17368   190.00000  16.07459             15.16011
473.92442   320.20349   172.00000  16.67794             13.37038
474.92903   104.67097   155.00000  17.74436             11.35110
476.73846   218.10769   130.00000  15.86465             10.52844
474.50000   40.50000    72.00000   10.80672             8.46518
479.46053   682.17105   228.00000  25.91615             11.40024
482.38650   477.56442   163.00000  18.13973             11.63253
487.43175   1084.16508  315.00000  23.79345             16.96614
487.50000   81.05833    120.00000  13.88875             11.01430
488.81818   340.07879   165.00000  16.30767             12.90718
489.54598   615.63793   174.00000  16.53236             13.45569
489.42000   113.66667   150.00000  16.56716             11.57796
494.38049   742.71220   205.00000  20.66428             12.84882
493.25862   367.37069   232.00000  20.21768             15.00267
498.13537   1331.28821  229.00000  20.44635             14.33327
494.38298   166.42553   94.00000   11.73499             10.19090
496.47525   263.00990   202.00000  24.32681             10.60903
497.51099   286.71978   182.00000  18.33980             12.63599
501.41364   242.34545   220.00000  22.02848             12.74324
499.76875   703.22500   160.00000  15.35472             13.30665
498.15152   83.50000    66.00000   10.17405             8.23886
505.39225   419.38499   413.00000  29.51441             19.20952
507.81308   471.06542   321.00000  23.41342             17.50034
505.54438   127.82840   169.00000  16.33366             13.21283
506.93213   315.84615   221.00000  17.86973             15.81349
505.80851   570.98582   282.00000  26.00017             13.83785
511.38315   759.45380   368.00000  25.58611             18.38863
510.85859   197.67172   198.00000  21.11844             12.08921
511.38235   445.95882   170.00000  15.68564             13.88590
516.57838   168.78919   185.00000  17.68182             13.37659
517.27200   341.13600   125.00000  13.56112             11.78305
518.79412   659.58235   170.00000  15.85455             13.70743
520.16667   51.29167    96.00000   11.93025             10.25656
523.96850   381.79528   127.00000  16.38448             9.97458
530.80511   1333.06390  313.00000  27.58419             14.98535
528.29016   357.23316   193.00000  17.75891             13.93992
529.60638   332.86170   94.00000   11.68695             10.28283
527.80769   1092.03846  52.00000   9.29368              7.08822
534.11894   707.14978   227.00000  19.06044             15.21968
538.25000   170.58125   160.00000  15.77285             13.05035
540.37456   289.43816   283.00000  24.20453             15.49299
540.88333   1104.81250  240.00000  22.81484             13.62240
539.87054   432.58482   224.00000  22.10416             12.95960
546.73885   1528.81529  314.00000  25.74252             15.80910
549.82680   479.08170   306.00000  21.92404             18.17573
548.93370   384.30939   181.00000  16.29631             14.27007
551.01702   812.68511   235.00000  22.65785             13.29056
548.11429   234.20000   105.00000  12.75351             10.66208
551.32227   355.56872   211.00000  17.35764             15.65652
550.55882   303.95882   170.00000  17.68588             12.30677
552.80851   1562.68617  188.00000  16.83994             14.26641
552.68557   403.92268   194.00000  19.19004             12.97272
552.54737   206.55789   95.00000   11.35212             10.70011
557.73554   435.41736   242.00000  21.10821             14.74607
556.21053   103.81579   76.00000   10.93905             8.96372
557.54545   232.86364   110.00000  14.16117             10.02923
560.90972   127.91667   144.00000  14.74326             12.87786
561.04286   52.72857    140.00000  14.23509             12.56001
565.91667   319.06863   204.00000  22.28032             11.72015
566.73143   275.86286   175.00000  16.30979             13.70250
566.61053   370.67368   190.00000  16.59662             14.65391
567.28188   389.87248   149.00000  14.84625             12.93519
566.83746   598.77385   283.00000  28.33284             12.95256
576.14498   576.45353   269.00000  22.77304             15.42626
576.82390   725.23270   318.00000  25.60495             16.17919
578.68898   346.48425   254.00000  24.34123             13.51581
578.87500   503.74597   248.00000  21.76312             15.02859
579.56522   150.09091   253.00000  22.66161             14.47822
580.06294   534.29371   286.00000  21.14008             17.51851
584.45226   653.32663   199.00000  21.72270             11.67778
586.28866   1324.80756  291.00000  21.30711             17.78988
584.70042   382.99156   237.00000  23.50950             13.34234
585.59655   426.30345   290.00000  26.08189             14.42084
588.72464   312.78744   207.00000  16.37518             16.11746
589.05319   637.61702   188.00000  18.22029             13.19943
591.40397   253.66225   151.00000  17.57001             11.04226
594.35540   1115.15679  287.00000  22.49629             16.82843
590.55200   77.32000    125.00000  16.64454             9.70431
588.54054   837.78378   37.00000   7.61231              6.14972
599.70536   137.56250   224.00000  20.70494             13.87689
600.59615   117.46154   104.00000  12.21504             10.90545
606.70455   451.92045   264.00000  23.92239             14.23535
607.33550   634.92834   307.00000  24.75035             16.20229
605.02183   650.06114   229.00000  19.25090             15.50290
604.48023   1596.87006  177.00000  16.91455             13.40272
608.10000   521.96538   260.00000  19.97218             16.81420
611.83172   853.71197   309.00000  28.20606             14.32302
609.58273   348.59712   139.00000  17.17456             10.32828
610.93004   253.35391   243.00000  22.13285             14.08166
611.25490   387.45588   204.00000  16.70052             15.66632
610.75817   301.35948   153.00000  14.84948             13.16237
613.73023   271.07442   215.00000  18.33741             15.05750
613.95238   199.82313   147.00000  15.15051             12.46355
615.77419   182.18548   124.00000  16.27884             9.74948
616.91275   328.02013   149.00000  16.49154             11.53960
616.48855   362.34351   131.00000  14.08757             11.89977
618.87261   511.08280   157.00000  16.60239             12.04944
624.54270   494.48760   363.00000  23.30393             20.52943
623.40541   57.41622    185.00000  18.40145             12.90741
625.46781   432.64807   233.00000  20.98094             14.53068
624.25439   625.29386   228.00000  19.28825             15.13225
623.41600   210.31200   125.00000  13.76783             11.59484
627.16337   676.57426   202.00000  18.59571             13.91706
627.77586   373.13793   116.00000  14.43469             10.27454
631.96591   696.75000   176.00000  15.09125             14.88010
633.77717   715.17391   184.00000  16.00570             14.75069
635.27481   139.61832   131.00000  15.23866             10.99478
636.06711   730.25503   149.00000  14.49471             13.12864
636.68712   395.89571   163.00000  15.63290             13.27971
639.29444   487.43889   180.00000  17.18487             13.59534
639.84454   556.26471   238.00000  21.91394             14.43685
638.10983   91.39306    173.00000  17.47752             12.80664
639.84181   350.72881   177.00000  15.86024             14.20372
642.87379   39.58738    206.00000  18.14637             14.47872
