# Filename: Nuclei_416_ctrl_60x_011.npz
# Voxel size (nm): (108, 108)
# Area quantity: voxels
# Num nuclei detected: 1269
Y           X           AREA       MAJOR_AXIS_LENGTH    MINOR_AXIS_LENGTH
9.35211     973.92958   71.00000   9.99428              9.05199
16.80513    1354.14359  195.00000  16.48652             15.26504
23.78146    1283.46358  151.00000  15.67000             12.43780
32.04377    1336.56902  297.00000  23.27177             16.50103
33.34545    569.38182   55.00000   8.52668              8.24176
44.50811    1231.14054  185.00000  17.88700             13.18877
45.34807    160.97238   181.00000  17.20670             13.48340
46.69194    1409.45024  211.00000  18.05513             14.95711
47.04192    821.34731   167.00000  15.08933             14.26547
54.60119    1152.38095  168.00000  16.17940             13.30694
54.26446    1035.71901  121.00000  13.64938             11.30815
58.99422    1176.01734  173.00000  16.54696             13.56453
61.05714    812.03571   140.00000  13.60746             13.11134
64.45217    886.21739   115.00000  12.27198             11.96867
64.43548    909.91935   62.00000   10.43950             7.56100
68.92169    1277.54819  166.00000  16.65388             12.76883
67.73171    1015.48780  82.00000   13.27674             8.25440
69.43182    1373.23295  176.00000  16.41539             13.65322
69.65217    965.36522   115.00000  14.31520             10.56228
73.90426    449.59574   94.00000   13.35907             9.42876
76.51685    1068.62360  178.00000  16.04154             14.21322
75.47619    1506.00794  126.00000  14.38775             11.34866
83.71724    521.57241   145.00000  15.89639             11.63513
82.93706    915.09790   143.00000  15.94859             11.44029
82.97710    937.50382   131.00000  13.44783             12.40053
91.20727    1352.62182  275.00000  21.35020             16.45403
89.14286    1652.81319  182.00000  18.13659             12.92511
93.78636    961.39091   220.00000  19.74081             14.42465
89.79452    982.90411   73.00000   11.05748             8.53550
95.89600    603.64800   125.00000  14.05056             11.38043
96.59859    635.89437   142.00000  13.67418             13.23274
98.01695    1436.83051  118.00000  15.53334             9.72225
99.38095    674.30952   84.00000   11.11929             9.70675
105.48837   909.73643   129.00000  20.72241             8.19215
103.08589   1078.50920  163.00000  16.77057             12.65795
104.85315   650.27972   143.00000  15.31036             11.90035
105.34848   1033.40909  132.00000  15.05271             11.27379
109.67273   440.00000   165.00000  16.27940             12.97203
112.63529   977.84706   85.00000   13.32061             8.18679
115.01064   1054.44149  188.00000  16.01336             14.95897
113.90476   670.77381   84.00000   11.32942             9.48254
119.30189   1117.85377  212.00000  18.85682             14.37428
119.63584   1783.08092  173.00000  18.70103             11.89350
118.30645   730.49194   124.00000  13.83597             11.54924
130.89163   842.12315   203.00000  20.31411             12.89555
128.16495   902.79381   97.00000   12.10237             10.18816
132.41036   1134.25100  251.00000  19.53369             16.41323
133.80569   364.93839   211.00000  20.45917             13.26719
132.22652   649.38122   181.00000  16.43795             14.06441
136.17669   445.55639   266.00000  22.06353             15.50223
133.97333   615.67333   150.00000  16.43398             11.73452
137.44167   1316.73750  240.00000  18.80187             16.45801
137.25926   577.96296   162.00000  18.54787             11.16277
138.92174   1157.13913  230.00000  19.93851             14.86271
140.58333   1648.09722  216.00000  20.45880             13.52874
137.23684   636.34211   76.00000   10.78342             9.15943
141.42029   938.35507   138.00000  19.13153             9.30227
137.59223   855.91262   103.00000  12.99199             10.22078
141.56497   986.14124   177.00000  17.80400             12.70030
142.25974   505.61039   154.00000  14.63066             13.46064
142.70879   1077.09890  182.00000  16.69744             13.95246
143.51136   947.09091   88.00000   12.31695             9.05410
150.04242   547.49697   165.00000  16.98828             12.70169
158.21212   488.45833   264.00000  31.06938             12.12087
155.00621   642.63975   161.00000  15.16205             13.62808
154.92188   878.89062   192.00000  17.52351             14.20578
160.23629   1007.29536  237.00000  22.01657             13.73907
157.25850   613.88435   147.00000  15.01691             12.49918
159.85648   1087.37037  216.00000  18.14552             15.25077
162.47938   1190.16495  194.00000  18.15081             13.66020
169.19028   389.59109   247.00000  25.43426             12.48731
166.21429   1118.39560  182.00000  18.08810             12.83024
168.26056   1240.42606  284.00000  23.54242             15.62286
167.60645   809.49677   155.00000  16.24586             12.26351
168.02500   1103.33750  160.00000  15.88325             12.84872
166.84034   1409.59664  119.00000  13.73331             11.09691
169.84422   413.92965   199.00000  17.29130             14.74612
169.99010   559.96535   202.00000  17.15311             15.16665
172.07801   740.09929   141.00000  22.32333             8.86917
174.95238   1292.36310  168.00000  17.17657             12.46178
174.56522   468.87681   138.00000  16.36405             10.76332
174.29775   1022.69663  178.00000  19.18761             11.83029
173.03636   1259.05455  110.00000  16.00591             9.31257
179.38462   351.79638   221.00000  17.91852             16.03462
177.10317   708.84127   126.00000  14.55435             11.15734
174.27160   852.49383   81.00000   10.45001             9.87260
181.30978   871.38043   184.00000  16.54796             14.17165
185.29545   257.06818   176.00000  20.20138             11.63367
185.01478   1044.93103  203.00000  18.04522             14.49732
191.87554   1318.40773  233.00000  20.16671             14.91411
190.49010   1654.54950  202.00000  19.53994             13.35025
192.15976   915.79290   169.00000  14.97822             14.40175
190.77273   1024.87879  132.00000  13.37272             12.60062
194.12162   959.80405   148.00000  15.37126             12.28305
193.01351   540.90541   74.00000   10.42754             9.06948
194.33871   713.80645   124.00000  14.12606             11.37428
200.69565   1389.71304  230.00000  22.46864             13.05689
198.54839   589.94839   155.00000  15.40322             12.91371
198.61856   857.93814   97.00000   12.51341             10.04088
200.35749   631.58937   207.00000  22.35849             12.18269
204.14815   1302.20370  216.00000  19.09756             14.49041
207.89630   367.30370   135.00000  18.62720             9.74652
207.47783   916.98030   203.00000  18.84203             13.80006
205.31579   964.56391   133.00000  14.12725             12.16647
209.76735   344.21633   245.00000  22.65704             13.89108
209.80328   170.70902   244.00000  18.69745             16.68922
205.22388   1064.52239  67.00000   10.39354             8.17715
213.02930   1105.14286  273.00000  23.02715             15.56141
208.88750   565.62500   80.00000   11.22017             9.09150
211.57803   619.22543   173.00000  16.26050             13.61923
213.86420   745.72840   162.00000  16.02601             12.92190
215.83708   402.20787   178.00000  18.40622             12.36362
211.79310   682.75862   58.00000   9.16879              8.05834
213.72000   950.01333   75.00000   11.19085             8.55497
219.35610   784.39024   205.00000  17.73099             14.77688
220.66500   971.79000   200.00000  18.05990             14.21755
222.48361   1153.19262  244.00000  22.09113             14.37804
222.55285   1361.43496  246.00000  19.50790             16.13397
219.58065   725.61290   62.00000   11.15674             7.10246
224.94706   329.81765   170.00000  17.81125             12.31427
229.01942   242.14563   206.00000  20.10732             13.53352
226.46226   551.09434   106.00000  14.56511             9.34021
227.78070   627.97368   228.00000  20.82182             14.30205
231.40385   1044.75962  208.00000  19.73719             13.50732
234.09664   1277.34874  238.00000  21.20547             14.36606
233.54762   768.39286   168.00000  19.94430             10.81908
233.01212   812.39394   165.00000  14.83297             14.21035
235.66187   757.83453   139.00000  14.86913             11.91613
236.96354   469.11458   192.00000  19.26094             12.70308
239.42254   886.22535   213.00000  18.81154             14.41493
240.15640   301.19905   211.00000  17.27273             15.75410
240.33333   649.59748   159.00000  16.48568             12.46795
242.88646   911.72489   229.00000  20.63457             14.15735
240.00000   844.72277   101.00000  12.43805             10.49781
242.96429   1229.92857  224.00000  17.60896             16.28215
244.39286   523.15476   168.00000  17.16991             12.60607
244.18405   745.06748   163.00000  16.32759             12.78361
247.97119   455.83539   243.00000  20.56543             15.12604
243.10811   731.51351   37.00000   7.83832              5.98132
255.35281   940.83117   462.00000  33.74753             17.77659
251.61290   1064.62366  279.00000  21.33693             17.02287
246.44231   180.71154   52.00000   10.30585             6.75541
249.19802   834.30693   101.00000  12.04547             10.76572
248.04286   811.31429   70.00000   10.67885             8.40464
255.06122   482.56633   196.00000  18.35995             13.64291
257.71856   1030.47305  167.00000  17.31091             12.93974
254.53261   559.89130   92.00000   11.23622             10.51593
259.41126   621.32468   231.00000  20.06687             14.81989
257.08383   859.06587   167.00000  16.50675             12.87868
258.51562   1245.36458  192.00000  19.68260             12.53520
260.88542   889.54688   192.00000  17.60562             14.09953
261.32105   801.46316   190.00000  16.77134             14.69546
261.26744   816.84302   172.00000  18.05954             12.20895
264.54878   1176.68699  246.00000  18.71725             16.88489
273.39039   1217.53754  333.00000  32.12473             13.30368
264.93846   703.89231   130.00000  15.90426             10.49435
266.36522   1111.82609  115.00000  14.47045             10.22981
268.69027   735.07080   226.00000  20.88650             13.91558
267.86325   787.44444   234.00000  18.49038             16.13448
269.32683   956.74634   205.00000  17.86112             14.71544
269.87356   426.37356   174.00000  15.92305             13.90494
269.69652   765.49254   201.00000  17.79893             14.46052
271.11050   827.08287   181.00000  18.06249             12.92153
272.86131   676.34307   137.00000  18.43130             9.52262
271.74400   595.99200   125.00000  15.06691             10.57254
273.41573   860.24157   178.00000  16.27253             14.16436
272.33793   503.44138   145.00000  15.16812             12.23750
273.85156   698.21875   128.00000  14.30644             11.40538
277.30918   1033.22705  207.00000  21.59012             12.27681
276.34559   166.11029   136.00000  13.59061             12.78839
279.02000   451.08000   150.00000  18.59623             11.08474
278.89243   634.18725   251.00000  19.48167             16.73668
278.49419   713.34884   172.00000  17.56637             12.57853
280.21560   1093.32569  218.00000  20.15087             13.81452
283.36652   1054.70588  221.00000  24.59736             11.58628
281.73764   1156.38023  263.00000  21.69285             15.48156
285.47111   786.84444   225.00000  19.04671             15.21184
286.63850   1133.66667  213.00000  16.59231             16.41138
287.78125   1230.98438  192.00000  17.87225             13.79842
290.51406   1282.05221  249.00000  23.64398             13.50530
290.09524   469.01984   252.00000  22.89404             14.27053
291.69919   181.90650   246.00000  19.24808             16.51671
288.71818   651.36364   110.00000  13.47170             10.58299
293.45553   765.34232   371.00000  24.24190             19.93948
293.80198   704.62871   202.00000  18.63314             13.87329
294.52713   897.02584   387.00000  31.76885             16.49208
293.93119   1485.43578  218.00000  17.97871             15.59936
297.00962   605.00000   104.00000  12.60652             10.61191
302.01724   995.44828   232.00000  22.47251             13.36649
300.60769   838.42308   260.00000  20.87319             16.63265
307.98438   665.26953   256.00000  25.97781             13.20698
304.26042   454.38021   192.00000  19.58558             12.53357
305.38258   1196.41667  264.00000  20.16334             16.73733
304.46977   812.72093   215.00000  22.02483             12.58532
303.53333   744.60833   120.00000  13.07174             11.84866
312.22174   630.14783   230.00000  22.79278             12.93381
310.30120   564.03614   249.00000  19.65612             16.20811
308.43506   963.22078   154.00000  14.11908             13.95211
312.70796   735.88938   226.00000  21.00799             13.81314
311.94040   977.82781   151.00000  15.40407             12.66838
314.83537   416.35366   164.00000  19.22434             10.96289
315.96257   439.91444   187.00000  19.61946             12.15437
318.12016   908.96512   258.00000  19.28469             17.86961
322.04898   1218.28571  245.00000  23.10048             13.56147
320.93038   726.95570   158.00000  18.58043             11.05912
324.29545   686.44886   176.00000  17.04247             13.35281
324.44161   1164.21168  274.00000  21.30872             16.41342
325.72881   405.35169   236.00000  19.65891             15.32026
321.92737   870.69832   179.00000  19.06188             12.26423
326.65652   1064.79130  230.00000  25.69458             11.54894
324.25610   1142.65244  164.00000  19.93427             10.62597
327.39815   1719.73611  216.00000  19.01319             14.53845
326.77835   812.41753   194.00000  20.42800             12.56685
330.17742   1124.85484  186.00000  20.79214             11.52683
330.75581   973.01163   172.00000  17.39355             12.58815
333.18519   545.88889   189.00000  17.69348             13.64454
336.25118   793.95735   211.00000  17.88176             15.08649
335.90610   465.00000   213.00000  19.35155             14.28043
336.72000   728.69333   150.00000  20.35226             9.63811
337.66216   873.44595   148.00000  17.37857             10.98421
338.03347   614.62343   239.00000  20.52315             14.85478
335.00000   1032.96552  116.00000  15.21822             9.99864
338.18471   1088.70064  157.00000  15.79452             12.70811
339.25610   639.25000   164.00000  20.06681             10.51158
338.72115   752.68269   104.00000  12.09345             10.98815
343.16552   671.20690   145.00000  15.41136             12.07510
346.98868   434.44151   265.00000  21.27891             15.97534
344.23125   567.83750   160.00000  15.01193             13.72093
344.19892   831.38710   186.00000  16.52934             14.37320
344.92268   1242.71649  194.00000  19.62772             12.98412
347.54819   746.61446   166.00000  18.90704             11.30359
346.68519   1067.53704  108.00000  12.65668             11.24051
347.45506   1717.42697  178.00000  15.90297             14.37266
348.97661   687.74854   171.00000  15.28671             14.31672
350.61749   525.53005   183.00000  16.94350             13.78463
352.89809   348.71975   157.00000  18.30194             11.04586
358.88963   1397.57860  299.00000  20.91172             18.48903
357.82873   794.74586   181.00000  19.00486             12.18676
356.47917   1015.88542  96.00000   11.55928             10.59871
358.81061   550.72727   132.00000  14.09393             12.36651
356.68333   881.25000   60.00000   10.06424             7.59649
360.52660   487.89362   188.00000  18.28574             13.08535
360.16568   774.85799   169.00000  15.45323             14.01133
357.52419   906.50000   124.00000  14.34689             11.11071
360.21134   981.44330   194.00000  16.14102             15.61721
360.82791   1094.93023  215.00000  20.63750             13.45716
363.03543   1129.16142  254.00000  20.49778             15.85970
362.61404   671.81140   228.00000  19.41575             15.00196
362.31858   950.17699   113.00000  12.50941             11.51106
367.21739   851.58454   207.00000  20.34165             12.99922
369.67220   920.38589   241.00000  21.39746             14.50216
367.97196   438.43925   107.00000  15.68131             8.72244
373.56863   1344.82745  255.00000  19.40438             17.00382
377.30802   645.13924   237.00000  19.74936             15.43188
377.13910   784.36842   266.00000  21.21456             16.23797
376.48333   1544.77778  180.00000  18.39515             12.60430
376.90868   887.32877   219.00000  20.31471             13.74482
382.71260   564.50000   254.00000  24.50866             13.92853
380.08543   459.48744   199.00000  17.20646             14.86148
379.74839   1228.21935  155.00000  15.20586             13.11312
385.55401   664.03833   287.00000  20.96465             17.61795
382.34615   853.86538   52.00000   8.48658              8.14777
385.34161   431.65839   161.00000  15.31351             13.45147
387.16837   600.49490   196.00000  22.14328             11.43557
389.24229   1479.82819  227.00000  21.40821             13.56254
385.94083   1683.78698  169.00000  15.40336             14.04521
387.67000   1610.29000  200.00000  17.32140             15.00137
387.63235   1745.54412  136.00000  14.21761             12.20973
391.72500   1460.06500  200.00000  17.98964             14.26799
394.56587   1528.29042  334.00000  23.31452             18.32498
391.57669   811.56442   163.00000  15.46739             13.52155
393.24528   1229.01887  106.00000  12.29767             11.21770
395.98174   1328.19178  219.00000  18.61538             15.05597
394.89683   786.84921   126.00000  15.30961             10.55909
397.30244   1075.15122  205.00000  16.86419             15.49364
395.66142   556.49606   127.00000  16.75143             9.70003
396.50909   1268.30909  165.00000  16.29307             12.95540
399.41333   506.58667   150.00000  19.74373             10.01456
399.08898   608.98305   236.00000  21.20874             14.39952
400.00806   1220.74194  124.00000  15.89447             10.08876
399.57237   528.13158   152.00000  16.60902             11.73348
402.04908   917.53374   163.00000  15.72600             13.19874
405.74519   1187.33654  208.00000  17.73663             14.97766
406.56934   1211.66423  137.00000  14.87135             11.90958
414.68404   714.87296   307.00000  22.99884             17.35805
416.82961   774.31285   358.00000  24.35014             18.80066
415.27132   836.64729   258.00000  20.56148             16.13254
424.33516   1049.53297  182.00000  18.50390             12.57634
425.00311   867.13975   322.00000  20.75403             19.86197
426.26848   951.95331   257.00000  19.29091             17.03725
426.31250   1593.94271  192.00000  17.35712             14.07830
427.73364   458.49533   214.00000  19.18517             14.21429
429.45390   988.22340   282.00000  19.95491             18.12577
433.92440   1217.13746  291.00000  30.16399             12.44015
434.92222   1142.02778  180.00000  17.09559             13.39936
438.47500   532.84643   280.00000  22.49608             15.88159
441.89320   485.32039   309.00000  21.67827             18.67438
441.77955   810.51757   313.00000  29.14268             13.82611
440.67582   1757.89011  182.00000  18.35123             12.89328
444.52427   888.00324   309.00000  24.44250             16.93710
443.89385   1017.92737  179.00000  18.60959             12.37991
444.33505   834.18557   194.00000  20.25963             12.19701
441.75385   1651.73846  65.00000   9.63353              8.97992
445.56652   1593.03863  233.00000  20.25296             14.72749
458.07477   1232.74143  321.00000  22.69133             18.32028
