# Filename: Nuclei_416_ctrl_003.npz
# Voxel size (nm): (108, 108)
# Area quantity: voxels
# Num nuclei detected: 692
Y           X           AREA       MAJOR_AXIS_LENGTH    MINOR_AXIS_LENGTH
11.82986    948.97569   288.00000  20.95359             17.61083
15.68954    808.01634   306.00000  23.30015             16.77147
9.77320     1124.94845  97.00000   15.06770             9.30890
18.42763    1216.32237  304.00000  23.11290             16.97196
23.38547    404.82123   179.00000  18.80682             12.15800
39.08711    527.46690   287.00000  25.75449             14.31244
48.78188    1764.05034  298.00000  20.88383             18.87303
47.29630    484.13757   189.00000  16.88835             14.41549
46.72289    213.33735   166.00000  18.61372             11.52359
76.41587    1183.04127  315.00000  25.98376             15.60278
101.93694   989.07207   111.00000  16.69927             8.50100
109.28125   1640.88542  192.00000  20.82402             12.14707
122.06173   793.44136   324.00000  26.87584             15.50445
118.75969   1826.39535  129.00000  15.39865             10.68576
119.21053   1006.76316  76.00000   12.58604             7.83956
127.98107   291.00315   317.00000  23.27981             17.48548
140.91743   770.94190   327.00000  22.49688             18.66106
164.48964   520.73316   386.00000  25.95310             19.07526
167.22500   261.02143   280.00000  21.97627             16.29541
166.46193   366.40102   197.00000  20.26026             12.91054
173.51711   451.29278   263.00000  23.36636             14.48633
173.39394   389.61212   165.00000  14.74301             14.32805
177.23509   307.67719   285.00000  22.13186             16.59024
190.41799   795.97090   378.00000  31.10026             15.60615
192.33511   247.34043   188.00000  17.26442             13.89289
223.82979   1658.51672  329.00000  24.92665             16.97682
226.26257   1862.87709  179.00000  17.08344             13.40042
224.96104   1799.41558  77.00000   11.16397             9.15985
234.70815   305.95279   233.00000  20.08221             14.91988
245.84120   1296.18884  233.00000  20.22042             14.68107
259.12644   293.07280   261.00000  20.29238             16.81683
278.91349   418.44291   289.00000  24.88935             14.92736
290.38851   747.80068   296.00000  25.10794             15.21912
297.12987   1117.80195  308.00000  27.90519             14.30967
299.57439   769.08304   289.00000  21.16661             17.59553
308.75637   693.07082   353.00000  34.08534             13.41740
322.79167   418.84615   312.00000  24.03134             16.75575
329.01538   336.02308   260.00000  20.21881             16.68310
355.36907   1143.75670  485.00000  34.31648             18.99548
371.43264   717.49223   386.00000  32.19103             16.07418
369.64634   309.77236   246.00000  18.48409             17.05169
386.72508   895.61027   331.00000  29.36127             14.56453
389.43929   417.35714   280.00000  22.72058             15.97734
392.66162   753.46717   396.00000  29.14495             17.44241
403.57937   312.59921   252.00000  18.93093             17.14447
407.59943   779.87784   352.00000  27.61099             16.34875
410.64247   1585.90591  372.00000  24.85571             20.02059
411.14478   876.13131   297.00000  20.61751             18.92188
418.15282   817.68771   301.00000  25.23667             15.45953
422.08788   1152.20909  330.00000  25.90399             16.30513
431.17933   1125.27660  329.00000  22.94885             18.41238
431.31481   1608.11728  162.00000  16.86898             12.27874
433.79293   1576.97980  198.00000  17.86259             14.13903
439.57231   903.28923   325.00000  26.86469             15.45949
449.65499   748.48787   371.00000  33.76905             14.24423
441.90432   867.10185   324.00000  25.66721             16.10284
442.42857   1592.47059  119.00000  14.38706             10.54687
444.42007   652.94796   269.00000  23.81230             14.45246
451.52632   1142.70947  475.00000  31.02029             19.88538
455.75321   835.68590   312.00000  28.95238             14.29278
455.00000   705.15288   399.00000  25.08292             20.34113
455.22069   466.62069   290.00000  25.01742             14.88944
460.34008   655.22267   247.00000  20.99077             15.61112
466.63077   1599.66154  195.00000  16.29993             15.59226
475.97154   708.21632   527.00000  31.42065             21.95467
475.10000   559.42045   440.00000  33.83631             17.21963
475.80952   669.34127   252.00000  20.37745             15.88744
476.84190   936.65613   253.00000  23.21465             14.06273
477.15210   1214.93851  309.00000  22.64801             17.73983
475.46324   283.28676   136.00000  14.01850             12.49577
477.34877   513.73569   367.00000  31.28759             15.05506
482.54955   729.73574   333.00000  25.73000             16.68592
485.11420   592.14198   324.00000  26.96187             15.76002
489.77225   749.08901   382.00000  30.75322             16.14091
485.32698   650.69206   315.00000  21.11893             19.03266
485.93921   847.77508   329.00000  22.57103             19.46961
486.38202   924.14607   267.00000  19.97079             17.22435
486.87129   1614.01485  202.00000  18.82209             13.77884
489.95833   1651.97917  144.00000  14.70180             12.69034
502.96882   99.66906    417.00000  28.19024             19.03104
506.30846   674.09950   201.00000  23.46001             13.37357
503.90909   1649.72294  231.00000  18.60055             15.88763
508.36803   597.80297   269.00000  23.83507             14.48961
508.05946   1630.57838  185.00000  17.57008             13.39956
508.84444   272.04444   45.00000   9.65867              6.78415
521.50898   849.88623   334.00000  30.30176             14.52117
516.63636   1246.61364  264.00000  20.93736             16.43080
516.34962   1205.25564  266.00000  19.47684             17.48805
524.52367   522.71893   338.00000  25.16375             17.22796
526.54510   117.59216   255.00000  23.00877             14.50560
528.00813   1634.18293  246.00000  18.04668             17.42698
529.46875   1658.45982  224.00000  19.25674             15.01883
539.41463   1720.46829  410.00000  24.06609             21.75177
540.49671   630.09211   304.00000  23.06291             16.88563
541.47590   1930.06627  166.00000  16.73228             12.68333
549.90476   1981.37143  105.00000  12.38584             10.85183
557.80000   1891.22703  185.00000  16.88181             13.98936
560.96396   1867.30180  222.00000  18.89018             15.05151
557.35366   1141.85366  82.00000   11.72432             8.90609
562.63433   1980.46269  134.00000  14.78010             11.60990
575.39858   674.61792   424.00000  34.91959             15.64010
569.31285   1954.87151  179.00000  17.68943             12.95554
574.98295   751.63068   176.00000  17.83933             12.67526
580.06061   1916.53030  198.00000  17.93436             14.11148
576.88571   1172.57143  35.00000   7.10646              6.25703
585.44503   1981.65445  191.00000  16.76567             14.55484
592.50952   1181.18571  210.00000  17.68066             15.14700
597.86456   364.40181   443.00000  25.26074             22.60732
601.37394   860.42776   353.00000  31.05625             14.63587
593.47887   1904.34507  142.00000  14.41129             12.58804
597.36957   1621.98551  138.00000  16.32958             11.26349
598.69880   1888.16867  166.00000  15.17022             13.98299
605.97043   838.06183   372.00000  27.34289             17.99614
602.21983   1169.10776  232.00000  17.43023             16.99657
601.71667   1630.60833  120.00000  14.39885             10.64586
606.16013   210.30065   306.00000  23.36817             17.24544
609.76579   1028.67632  380.00000  32.74803             14.90892
608.53892   1980.81437  167.00000  16.51599             12.99146
609.13415   1043.67073  82.00000   11.57441             9.06404
617.23511   1224.60502  319.00000  27.62458             14.79973
619.28497   1624.15544  193.00000  19.75992             12.52664
623.43284   1176.20896  67.00000   9.90772              8.61051
632.31538   1744.65769  260.00000  19.64136             16.96640
633.27622   1206.53846  286.00000  19.54594             18.70675
639.01439   924.25540   278.00000  25.67135             14.39499
635.38421   1597.04211  190.00000  18.06553             13.47763
641.81633   1057.01458  343.00000  22.11644             19.95036
637.30233   1631.00000  86.00000   12.45777             8.81817
637.52632   1620.28947  38.00000   8.17523              6.03701
644.66667   91.56106    303.00000  25.96781             15.04384
647.47632   163.06128   359.00000  23.32286             19.68350
640.32000   1137.42000  50.00000   8.66333              7.72566
646.66160   1118.06464  263.00000  21.14989             15.92759
642.40541   1220.48649  37.00000   7.61056              6.17652
651.51271   1795.01271  236.00000  22.60771             13.39636
652.68750   1932.91346  208.00000  22.93258             11.72895
661.74759   1154.96339  519.00000  29.02848             23.07578
662.45455   1273.12648  253.00000  22.92496             14.09255
665.10175   1606.81053  285.00000  21.49892             16.93880
665.86792   1840.74843  159.00000  16.93250             12.05851
668.62452   256.61303   261.00000  20.33496             16.50120
664.91597   2007.84874  119.00000  13.49725             11.22725
672.10462   139.16000   325.00000  23.22009             17.92453
670.06452   191.73835   279.00000  20.42961             17.48792
670.99497   1636.57286  199.00000  22.65533             11.22084
673.47368   163.62171   304.00000  24.15998             16.15207
670.46939   1544.02551  196.00000  17.34939             14.49116
670.95021   1783.45228  241.00000  22.83411             13.75920
673.71921   1854.57635  203.00000  17.61002             14.75983
672.03077   369.60000   65.00000   9.68984              8.65188
678.05369   2003.73154  149.00000  17.04640             11.20311
685.36517   1544.71348  178.00000  16.84325             13.53329
692.64548   778.01338   299.00000  23.29673             16.62003
699.18587   1789.93309  269.00000  19.73362             17.48236
701.03780   110.78694   291.00000  20.62534             18.09988
699.78161   1589.37356  174.00000  15.60242             14.26533
705.46000   1607.36500  200.00000  21.65485             11.77923
710.56118   1521.62869  237.00000  19.52192             15.75030
718.25316   258.16203   395.00000  28.45049             18.86662
719.72185   635.34437   302.00000  24.92452             15.57903
722.70541   535.13784   370.00000  38.14659             12.49127
725.65354   955.52362   254.00000  26.52100             13.34455
727.11765   128.76765   340.00000  24.24108             18.07279
727.98966   1394.49354  387.00000  34.42871             14.66578
733.18723   371.55745   235.00000  24.34038             12.42666
730.48494   470.14759   332.00000  27.38107             15.50118
735.74017   1567.98472  458.00000  32.59599             18.15503
731.12987   439.89610   77.00000   11.68578             8.38907
737.75758   1807.12626  198.00000  19.33550             13.17994
738.70857   357.52000   175.00000  20.98083             10.82297
750.45729   234.13317   398.00000  32.90024             15.93123
742.28485   1526.50303  165.00000  15.00799             13.99593
744.26455   1391.27513  189.00000  17.70905             13.73349
748.58750   173.22500   240.00000  20.13218             15.47997
748.53962   1860.01887  265.00000  19.63530             17.39772
754.52399   687.85609   271.00000  19.42020             18.04480
753.69951   758.82512   406.00000  36.69927             14.66601
756.76109   292.91468   293.00000  23.05332             16.30070
756.55212   1610.93822  259.00000  21.99521             15.08119
758.68485   544.56970   165.00000  16.68199             12.71108
765.57292   1539.52083  288.00000  24.96756             14.76769
765.13603   164.35294   272.00000  19.58393             17.74007
772.59921   544.51190   252.00000  18.86965             17.14084
778.31842   346.43158   380.00000  28.84718             16.86591
787.88650   804.47853   326.00000  27.29689             15.39075
786.92440   197.08247   291.00000  24.71002             15.07159
785.74000   1599.67000  200.00000  19.62174             12.99859
787.50342   265.97945   292.00000  21.61293             17.51079
792.93103   722.43236   377.00000  30.71286             16.25879
797.22346   1574.98324  179.00000  18.49182             12.50152
800.16049   1414.13272  324.00000  25.65239             16.17730
797.59172   1496.94675  169.00000  16.50778             13.30924
799.09945   1509.55249  181.00000  18.71810             12.37153
801.72862   1549.65056  269.00000  24.18052             14.44922
806.77341   659.15408   331.00000  22.95873             18.44033
813.42286   1610.41714  175.00000  16.33050             14.18374
812.30973   532.66372   113.00000  12.50947             11.90043
823.23203   807.48366   306.00000  21.05764             18.68971
820.78723   1465.48936  188.00000  18.35290             13.31366
818.91026   749.69231   78.00000   12.01877             8.31174
824.32551   912.51613   341.00000  25.75886             16.92458
825.94118   1416.52941  323.00000  26.56462             15.84516
821.48571   541.97143   70.00000   11.50447             7.80307
825.05882   534.74510   51.00000   8.80873              7.41340
830.43678   1488.37165  261.00000  25.02957             13.69558
832.60847   1532.29101  189.00000  16.75696             14.41669
834.60000   538.15385   65.00000   10.34361             8.08286
842.93625   1575.28287  251.00000  24.21668             13.65716
843.05660   1316.99057  106.00000  13.21856             10.30159
844.77333   1555.60000  150.00000  16.12175             11.98056
852.46389   925.69444   360.00000  25.11313             19.26408
850.04145   1617.33679  193.00000  20.48913             12.03410
849.64626   1458.56463  147.00000  16.89788             11.22852
852.02419   1441.04839  124.00000  13.40231             11.80797
859.84118   1452.70000  170.00000  16.36779             13.30166
869.60494   1328.62037  324.00000  38.29925             11.39282
860.97938   1562.11340  97.00000   11.85539             10.41509
867.08311   804.71582   373.00000  30.29978             15.88382
862.40000   1491.92727  55.00000   9.30470              7.57602
868.43956   1407.67582  182.00000  21.17721             11.01174
867.93651   1464.90476  126.00000  15.09668             10.68783
873.62718   1641.91986  287.00000  27.87894             13.22359
875.17778   1421.04444  135.00000  14.98793             11.47020
876.97283   1439.15217  184.00000  19.65327             12.03155
879.65556   1604.68889  180.00000  19.88567             11.66390
878.12500   1470.82639  144.00000  14.69468             12.81061
882.92056   1671.36449  214.00000  18.78693             14.55772
883.98333   800.36667   60.00000   9.29681              8.24300
897.13590   990.86410   390.00000  34.13716             14.63161
889.80000   1557.49375  160.00000  16.13510             12.64982
891.94554   1683.19802  202.00000  21.05644             12.23819
905.00658   922.90351   456.00000  36.67052             17.11471
892.80952   738.90476   63.00000   9.22717              8.75633
898.47727   1426.40341  176.00000  16.54516             13.73484
897.91304   942.02174   46.00000   8.41974              6.94865
904.84099   1469.74558  283.00000  21.37049             17.19180
901.32558   893.06977   86.00000   11.58887             9.43612
905.34615   1446.06154  130.00000  15.31826             10.80403
900.34884   1558.27907  43.00000   8.51509              6.44278
910.66571   1524.00865  347.00000  23.97637             18.56746
910.10909   397.43636   440.00000  28.48175             20.01881
909.96667   1575.16000  300.00000  29.56891             14.15058
918.39151   1476.20755  212.00000  23.84334             11.67705
924.68627   1551.00392  255.00000  24.68947             13.38393
925.37132   1609.09926  272.00000  19.85961             17.86707
927.46087   1506.92609  230.00000  19.29725             15.28824
928.61111   1657.72727  198.00000  17.45022             14.51161
931.02308   1492.51538  260.00000  20.83892             16.09982
937.98466   892.41104   326.00000  28.67092             14.57312
934.60000   1427.85641  195.00000  19.46417             12.81504
937.60517   1767.04059  271.00000  21.33932             16.28625
940.46181   29.23958    288.00000  21.68844             17.11247
940.57244   1633.83039  283.00000  20.86846             17.46046
938.32203   1387.86441  59.00000   10.30321             7.25975
937.67742   839.09677   31.00000   6.40849              6.17646
939.53521   1581.05634  71.00000   10.89550             8.28578
944.51376   1411.08257  109.00000  12.45035             11.17975
953.17978   1227.23596  267.00000  31.26407             11.14410
949.41148   1703.07177  209.00000  19.28665             13.84429
954.20538   998.73594   409.00000  24.94378             20.92758
955.93413   520.31737   334.00000  26.65951             16.52208
958.01242   954.63354   322.00000  25.86426             15.95940
955.02797   1511.46503  286.00000  22.13321             16.71202
957.30303   1414.67879  165.00000  18.54602             11.39820
961.22593   1530.38889  270.00000  26.61946             13.31072
959.24047   1039.85337  341.00000  23.87780             18.45104
957.59195   1572.54023  174.00000  16.63061             13.40945
962.27857   1623.49643  280.00000  28.05942             12.79727
966.35745   1733.15745  235.00000  26.38041             12.55656
965.44211   1490.04561  285.00000  24.14335             15.19700
964.55844   1452.81818  77.00000   12.74337             7.72141
975.10830   1317.95307  277.00000  29.62164             12.19440
965.33333   1436.89744  39.00000   10.13188             5.43625
973.46023   1398.19886  176.00000  16.56657             13.58073
977.23881   1676.82836  268.00000  19.82552             17.41026
978.02059   604.72353   340.00000  27.85956             15.91089
977.37931   1435.77586  116.00000  13.52544             10.96192
982.39404   625.32119   302.00000  21.35160             18.08444
982.79779   650.29412   272.00000  21.81063             16.21072
986.58889   580.90000   360.00000  23.58836             21.06952
982.88626   1730.40284  211.00000  17.07669             16.06711
981.51546   743.72165   97.00000   11.64312             10.68279
980.75000   854.31818   44.00000   7.66490              7.34182
999.95291   1253.93498  446.00000  32.59185             18.35524
992.86932   1586.01705  176.00000  17.60055             12.72568
996.79348   1412.55978  184.00000  19.35315             12.13773
994.50943   1454.94340  53.00000   9.31980              7.29654
999.81166   1543.56054  223.00000  21.43731             13.35525
1001.11050  524.47790   362.00000  32.34237             14.63137
995.82759   721.37931   58.00000   11.82968             6.69831
1000.16863  1637.18824  255.00000  22.41366             14.87444
1001.41489  1567.84043  188.00000  16.61373             14.44479
1007.39812  691.16614   319.00000  23.85254             17.88759
1011.30719  720.61765   306.00000  22.67554             17.25426
1009.74457  1439.79348  184.00000  18.12046             12.94507
1022.66000  1236.52333  300.00000  31.71891             12.26372
1022.39274  1604.82508  303.00000  26.83602             14.71711
1026.63448  1449.48966  145.00000  23.95952             8.28097
1032.00377  1260.39245  265.00000  26.29883             12.88341
1035.58156  1284.79078  282.00000  34.75881             10.93943
1033.36599  460.41499   347.00000  28.85867             15.51561
1024.37255  716.31373   51.00000   8.20368              7.96821
1028.63874  1569.38743  191.00000  17.17936             14.17994
1029.04396  1421.83516  91.00000   14.58973             8.14927
1027.71084  1461.42169  83.00000   12.77191             8.27372
