# Filename: Nuclei_416_ctrl_60x_003.npz
# Voxel size (nm): (108, 108)
# Area quantity: voxels
# Num nuclei detected: 984
Y           X           AREA       MAJOR_AXIS_LENGTH    MINOR_AXIS_LENGTH
20.93617    1533.72340  141.00000  18.10365             10.16411
33.97581    1496.37903  124.00000  13.85692             11.44977
48.19892    590.47312   186.00000  16.27252             14.69332
51.77311    1459.39496  119.00000  13.34380             11.37896
59.02778    1471.18333  180.00000  17.67843             12.98849
58.92857    417.23571   140.00000  13.67157             13.08883
57.47423    1529.63918  97.00000   12.87919             9.75535
66.68862    338.26347   167.00000  16.59810             12.89187
66.78218    385.00990   101.00000  12.06911             11.19191
70.82000    216.20500   200.00000  18.37247             13.97361
75.29630    447.64198   162.00000  15.67172             13.29730
99.29365    460.35714   126.00000  14.72267             10.94924
102.43023   733.68217   258.00000  19.69118             16.88784
101.10526   771.72632   95.00000   14.10881             9.60632
104.65363   326.94972   179.00000  19.29751             11.96239
117.05128   672.27692   195.00000  16.72890             14.89460
123.94375   1559.55000  160.00000  14.79603             13.94586
131.79255   1597.44149  188.00000  16.96826             14.14871
139.43390   647.90169   295.00000  22.03447             17.14998
135.41727   1681.43165  139.00000  15.11640             11.85406
133.98750   329.15000   80.00000   11.02235             9.63043
138.98598   1174.07009  214.00000  20.36537             13.41681
146.24481   682.56017   241.00000  20.72943             14.89869
149.02847   580.02135   281.00000  23.10004             15.92525
146.83237   1707.47977  173.00000  17.67022             12.84235
154.07944   487.33645   214.00000  20.30608             13.51335
162.77130   337.37668   223.00000  17.95709             15.85460
171.39024   358.43902   82.00000   12.57623             8.57824
178.00885   734.06637   226.00000  20.65352             14.05102
179.99111   491.18667   225.00000  18.91017             15.27111
186.22697   841.44079   304.00000  22.36367             17.89991
193.91770   797.45267   243.00000  20.37752             15.32754
194.72115   142.92308   104.00000  13.41298             9.89869
199.75000   262.29412   204.00000  17.25937             15.09852
207.50244   880.91220   205.00000  23.78181             11.13026
218.23776   316.05594   143.00000  14.68843             12.44042
236.66438   424.28082   292.00000  21.87455             17.18160
241.22397   856.76972   317.00000  27.40088             14.80370
236.94355   392.64516   124.00000  13.70383             11.67065
240.56929   488.95880   267.00000  22.14542             15.48252
242.26389   319.51389   144.00000  15.29637             12.00062
260.42138   302.47170   159.00000  16.13436             12.56724
271.60289   1081.91697  277.00000  23.92322             14.89915
270.72000   76.64000    150.00000  14.83490             13.44065
276.27213   523.59016   305.00000  24.24778             16.16683
286.03571   921.41071   224.00000  30.96117             10.16861
286.54065   329.12195   246.00000  19.71248             15.96947
287.83333   881.37281   228.00000  20.38652             14.63121
291.53636   1818.36818  220.00000  18.47224             15.29363
300.85222   308.44335   203.00000  18.09750             14.34346
308.08814   532.58983   295.00000  25.93229             14.64084
318.86364   1024.17133  286.00000  20.52270             17.91928
354.46358   951.90728   302.00000  24.22743             16.03551
356.07510   355.35968   253.00000  27.50859             12.04514
353.15833   882.71667   120.00000  13.16833             11.62653
361.93701   70.93701    127.00000  13.56376             12.10289
365.06612   874.58678   121.00000  15.86260             9.82436
370.34202   574.75570   307.00000  28.81389             13.67760
375.04681   914.98298   235.00000  28.16205             10.77031
390.32653   843.49271   343.00000  26.06121             17.25555
400.43939   390.56061   198.00000  18.00427             14.08816
403.74074   641.07407   216.00000  19.32869             14.53660
405.30189   799.49057   265.00000  20.62653             16.48602
408.05294   242.75294   170.00000  16.60024             13.07441
414.39583   706.65278   288.00000  22.39477             16.47673
419.15953   913.50584   257.00000  21.77710             15.21660
426.86080   893.46875   352.00000  34.43940             13.53489
423.79208   745.22772   101.00000  17.09443             7.61198
444.49084   421.81319   273.00000  22.42642             15.78280
483.69796   924.58367   245.00000  24.15130             13.29755
497.02290   903.38550   262.00000  19.69413             17.42639
505.42500   140.77500   120.00000  13.59502             11.61646
508.83673   314.44898   98.00000   13.58326             9.38552
531.01099   934.86813   273.00000  26.52780             13.15987
531.91071   734.39286   56.00000   9.01344              7.88422
541.18217   924.08527   258.00000  29.02525             11.61611
547.58772   1087.24561  228.00000  22.38982             13.04757
557.67391   940.69565   138.00000  15.50645             11.37331
566.38376   358.51661   271.00000  25.37637             13.68208
571.86829   388.48780   205.00000  23.28877             11.43580
568.36686   1060.67456  169.00000  16.61825             13.00832
567.56757   1128.54054  148.00000  15.53730             12.12574
575.94762   1083.13810  210.00000  19.03103             14.20879
576.39884   938.46243   173.00000  18.16574             12.48138
572.27586   698.31034   29.00000   7.41883              4.94057
580.89222   951.91018   167.00000  17.13587             12.44626
580.39407   427.32627   236.00000  21.72193             13.99408
580.27907   1068.33721  172.00000  16.65675             13.19791
584.76849   1136.15756  311.00000  25.66911             16.00512
586.58246   281.59649   285.00000  26.67164             13.64517
590.44767   495.56977   172.00000  18.50024             11.90431
594.40602   900.95113   266.00000  26.74496             13.08105
594.61272   456.53757   173.00000  20.35906             10.84786
592.19643   1101.62500  56.00000   9.19053              7.89817
596.77500   250.12917   240.00000  23.05504             13.66705
596.28000   1182.38000  50.00000   10.09382             6.48614
603.31319   1176.23626  182.00000  18.22312             13.15522
597.42105   1035.10526  19.00000   5.54470              4.29570
607.00613   439.44785   163.00000  20.85703             10.06275
610.63720   572.84756   328.00000  29.31076             14.66410
611.09559   354.53309   272.00000  23.40073             14.97865
617.26071   1255.80357  280.00000  28.29764             13.61287
617.73050   1175.95035  141.00000  14.82177             12.27781
625.72947   127.82609   207.00000  19.30474             13.65166
628.36744   709.79070   215.00000  18.73968             14.82332
631.85547   842.47656   256.00000  24.93346             15.87583
629.48826   1216.89202  213.00000  17.31353             16.03096
628.62376   624.58416   101.00000  13.99948             9.29243
636.18824   674.00000   255.00000  21.87475             14.92632
638.17241   939.85057   174.00000  23.72739             9.63918
636.55906   640.86614   254.00000  24.96957             13.01319
639.88205   697.58974   195.00000  21.67434             11.75497
644.98828   752.44531   256.00000  25.48099             12.93181
638.62366   851.60215   93.00000   12.74776             9.49064
644.14815   1332.51852  108.00000  19.38711             7.33876
643.27839   389.05861   273.00000  21.18185             16.56238
642.50336   1651.18792  149.00000  17.00694             11.18233
654.83922   663.10588   255.00000  18.80214             17.59914
653.46914   718.55967   243.00000  28.73145             10.87808
651.26829   1340.26016  123.00000  16.11190             9.89175
655.43750   21.27679    224.00000  20.17989             14.34965
658.14444   939.14444   180.00000  20.97760             11.14677
660.94932   351.56419   296.00000  22.65783             17.16934
661.00870   392.99130   230.00000  21.57612             13.59792
660.22801   817.01303   307.00000  24.66550             15.99440
664.64563   948.80097   206.00000  25.38873             10.39382
664.59032   763.42581   310.00000  22.44583             18.16533
663.11364   1292.30909  220.00000  19.44425             15.36597
667.53363   691.83408   223.00000  26.94753             11.09397
669.84556   1497.75676  259.00000  18.91828             17.94710
668.81765   706.37647   170.00000  17.36672             12.51718
672.93357   1320.25524  286.00000  23.83170             15.81713
673.32258   1299.15484  155.00000  18.22899             11.30018
672.81416   1473.84513  226.00000  19.59087             14.87307
673.32389   1425.28745  247.00000  20.38502             15.49745
678.00749   724.74157   267.00000  22.19435             16.55059
678.67876   675.88083   193.00000  16.17181             15.27276
679.92432   1645.91892  185.00000  19.56335             12.13072
678.80769   1659.63846  130.00000  15.02492             11.07176
679.70455   1286.04545  132.00000  14.50662             11.63619
684.60943   1379.93266  297.00000  22.00973             17.65994
685.28017   661.12069   232.00000  18.57444             16.24121
683.95652   1771.47343  207.00000  19.77315             13.36790
689.91724   180.75172   290.00000  25.75615             14.71080
691.89474   59.26842    190.00000  19.41767             12.66835
688.70769   1669.33846  65.00000   10.91076             7.59564
693.38078   1346.87189  281.00000  24.18905             14.83604
704.97143   404.52143   280.00000  30.81202             11.69001
699.36774   1280.36129  155.00000  17.33923             11.49146
703.49288   781.28775   351.00000  24.57291             18.58001
702.91414   1775.58586  198.00000  16.28323             15.50348
714.80851   1369.52128  188.00000  17.06604             14.09946
716.66197   1673.18310  213.00000  18.29076             14.95107
722.61943   1303.90688  247.00000  20.88268             15.20069
720.43682   1392.06498  277.00000  19.28361             18.57788
721.94097   290.35417   288.00000  19.85305             18.67156
726.39405   1415.72119  269.00000  22.65619             15.35971
722.14706   1658.12353  170.00000  15.69325             13.89380
725.54054   1798.60618  259.00000  26.53291             12.68380
727.66537   99.19844    257.00000  20.96182             15.71393
726.50867   785.60116   173.00000  16.10898             13.71849
727.48256   1287.68023  172.00000  18.15637             12.24776
734.66543   1266.95167  269.00000  23.53371             14.82066
733.33125   1402.29375  160.00000  16.79268             12.17660
734.68085   1866.53901  141.00000  15.10683             11.95033
735.76296   204.57778   135.00000  14.95458             11.54387
738.17051   141.30876   217.00000  18.45802             15.10950
739.00410   159.15164   244.00000  17.97114             17.40401
738.37629   183.63918   194.00000  16.72483             14.79111
745.58214   262.27857   280.00000  21.40074             17.61091
742.71200   838.23200   250.00000  21.84512             14.68477
753.26512   405.93023   215.00000  22.35603             12.24216
748.71084   1866.36145  83.00000   11.72161             9.09891
753.89447   1434.03518  199.00000  18.67493             13.61028
757.97610   1280.71713  251.00000  20.70319             15.72019
756.98305   1947.35593  118.00000  13.74812             11.10238
761.25466   24.68944    161.00000  17.75152             11.82132
769.44569   782.21723   267.00000  21.57399             16.24233
769.14222   1631.39556  225.00000  17.62577             16.26116
769.56647   243.26590   173.00000  16.20622             13.60191
767.59596   887.45455   99.00000   15.58325             8.23714
773.92000   204.91333   300.00000  25.02494             15.51546
776.65865   882.99519   208.00000  18.78854             14.21440
777.18827   88.50926    324.00000  24.37833             17.05164
776.17257   163.00000   226.00000  22.65370             12.79231
775.64844   2008.53125  128.00000  15.10976             10.78549
786.58594   1426.87109  256.00000  21.00605             15.54186
788.27962   1462.13270  211.00000  19.95844             13.52319
787.39695   1678.90840  131.00000  13.65613             12.36283
800.71028   1631.92523  214.00000  17.34933             15.78589
812.53420   436.64821   307.00000  33.75893             11.79425
807.82867   936.51049   286.00000  24.15916             15.10627
807.78346   1291.15354  254.00000  20.15938             16.39761
809.53420   1310.09772  307.00000  25.02907             16.40429
808.69068   276.17797   236.00000  23.04237             13.09527
807.20732   409.73171   246.00000  22.23909             14.15500
824.32830   1644.22642  265.00000  27.37022             12.72858
822.28309   793.29779   272.00000  21.25114             16.50079
822.64607   1502.26404  178.00000  18.08966             12.54491
824.63694   2004.35669  157.00000  15.53135             12.90961
826.65089   1326.13609  169.00000  20.02500             11.13107
833.22488   282.89474   209.00000  17.19641             15.52727
834.05691   1475.71138  246.00000  21.77924             14.52737
837.27848   1986.53797  158.00000  14.99279             13.44574
841.86316   1325.68421  190.00000  21.00531             11.70864
848.46781   308.04721   233.00000  24.10134             12.37887
845.91667   444.09722   288.00000  21.74573             16.91727
849.05042   992.50000   238.00000  25.06379             12.16280
847.59119   1969.63522  159.00000  15.65329             13.03437
858.84362   1052.38683  243.00000  22.96029             13.55186
855.81622   1522.02703  185.00000  16.36415             14.57535
854.88732   1537.95775  142.00000  14.44676             12.55816
858.24615   1554.53333  195.00000  19.18895             13.10498
854.46875   1596.84375  32.00000   6.92027              5.93327
862.16740   1618.85903  227.00000  17.44064             16.79864
862.24324   1576.76126  222.00000  22.15303             12.86369
865.52128   1097.56915  188.00000  16.45655             14.68218
869.85463   812.86344   227.00000  17.89458             16.42585
873.62676   1300.03521  142.00000  17.47479             10.47545
878.06579   1324.08333  228.00000  22.55613             13.28587
885.52045   1482.04833  269.00000  28.42553             15.09490
881.59426   1039.67213  244.00000  21.00826             14.97552
881.04592   1089.45408  196.00000  17.24575             14.61849
884.99190   1501.09717  247.00000  19.44298             16.83995
887.39189   486.55676   370.00000  31.95769             15.21316
888.06101   347.72944   377.00000  26.01301             18.74560
883.95238   1333.41905  105.00000  14.13825             9.66127
889.33735   835.19277   249.00000  19.82567             16.44259
890.83588   1078.17176  262.00000  23.26902             14.60527
888.95044   1147.76385  343.00000  29.34164             15.37830
895.23776   1045.24825  286.00000  21.85773             17.32170
896.27801   1580.89212  241.00000  18.83964             16.60556
898.32781   1192.81788  302.00000  26.13034             15.07559
900.98611   371.94907   216.00000  21.88137             12.61884
903.30584   1259.07216  291.00000  25.83148             14.61229
905.89418   660.92063   189.00000  16.68040             14.81608
906.78626   517.64885   262.00000  27.23383             12.37258
910.85932   1119.76046  263.00000  23.88737             14.26817
903.85185   1342.25926  54.00000   9.54286              7.17685
911.19749   1636.82132  319.00000  23.08675             17.79680
914.20866   1092.53150  254.00000  21.60296             15.28422
914.78648   1203.29181  281.00000  21.82422             16.72436
914.88430   1615.94628  242.00000  18.61420             16.88938
915.60870   688.52174   23.00000   5.65685              5.22319
919.87179   1057.79915  234.00000  20.96550             14.96037
923.66480   1345.21229  179.00000  17.86095             13.00059
925.69643   985.13988   336.00000  21.76937             20.11331
924.05072   860.85870   276.00000  23.25055             15.25747
929.49826   422.62718   287.00000  32.45454             11.60882
927.40773   547.49356   233.00000  23.09621             13.18697
936.68306   1334.55738  366.00000  27.56865             17.14972
943.66013   908.02614   153.00000  16.45824             12.05648
946.02092   1294.82845  239.00000  21.89884             13.90812
950.36268   35.39789    284.00000  24.38413             15.19040
952.90551   903.59843   127.00000  15.32139             10.80156
951.59091   1142.00000  44.00000   8.04668              6.94331
953.46512   1162.11628  215.00000  20.68520             13.41981
959.73664   1176.00000  262.00000  24.31375             13.88856
960.45570   958.91139   237.00000  22.69564             13.48634
958.51449   1256.00000  276.00000  21.59780             16.40505
957.76279   974.18605   215.00000  20.32373             13.57712
964.05476   601.97406   347.00000  31.32726             14.48867
960.52000   1326.41000  100.00000  12.72139             10.02148
965.86885   1138.20492  244.00000  23.56765             13.33351
966.77032   934.68551   283.00000  23.41459             15.60652
968.61686   1222.99234  261.00000  20.75020             16.08403
969.62963   910.21296   216.00000  22.00795             12.69544
969.85281   1094.19913  231.00000  20.60431             14.48827
972.98739   1369.15966  238.00000  21.18503             14.45692
977.71269   69.39179    268.00000  22.84416             14.97392
978.50628   1332.50628  239.00000  19.04313             16.20483
979.03871   1021.10645  310.00000  27.20263             15.71661
979.56184   1077.60424  283.00000  26.57705             14.00244
977.63158   1284.83901  323.00000  31.80544             13.26725
979.72000   1265.23333  150.00000  14.45389             13.54694
986.96484   1110.87109  256.00000  21.76715             15.07583
989.65497   1644.94152  171.00000  17.46996             12.66478
988.46970   631.07576   66.00000   10.00957             8.66579
993.38828   85.51282    273.00000  24.36173             14.33162
992.80000   1681.61290  155.00000  15.39516             12.88172
993.42009   59.32877    219.00000  17.40734             16.06415
993.06341   445.07805   205.00000  21.12889             12.72001
996.55052   924.86760   287.00000  23.58799             15.66848
1000.92051  1152.79231  390.00000  28.27704             17.93514
1001.18868  1312.59434  212.00000  21.49586             12.76526
1002.03586  669.00000   251.00000  21.02586             15.61579
1006.56090  1116.22436  312.00000  26.08257             15.97639
1000.97351  1284.41722  151.00000  14.98744             13.19333
1003.94017  1633.06838  234.00000  19.26081             15.63801
1009.36576  1324.06226  257.00000  23.63949             14.08476
1009.54870  700.05844   308.00000  30.66309             13.05710
1004.95455  2.89394     66.00000   11.11378             7.84111
1014.53257  1206.50192  261.00000  20.94569             16.02980
1017.08765  1229.36255  251.00000  24.22976             13.39379
1022.63670  1415.88015  267.00000  28.64576             12.37734
1026.53846  1221.26036  169.00000  17.35915             12.72239
1033.72039  470.24342   304.00000  28.01929             14.45626
1031.91713  1390.03315  181.00000  19.77130             11.68822
1034.30796  1334.40484  289.00000  20.88736             17.66883
1035.33641  1509.42857  217.00000  20.07754             14.12110
1033.94545  8.80000     110.00000  12.98263             10.81749
1036.49268  1709.72195  205.00000  19.68734             13.48061
1039.27465  740.37676   284.00000  21.58326             16.95504
1038.41463  1381.25366  205.00000  23.09227             11.35593
1035.85561  1209.48663  187.00000  18.42346             13.07748
