# Filename: Nuclei_416_bidi_60x_011.npz
# Voxel size (nm): (108, 108)
# Area quantity: voxels
# Num nuclei detected: 998
Y           X           AREA       MAJOR_AXIS_LENGTH    MINOR_AXIS_LENGTH
126.38983   269.65254   118.00000  12.92521             11.69527
178.77181   279.68456   149.00000  14.22915             13.40310
195.44156   312.02597   77.00000   10.98506             9.25487
210.46875   255.43750   96.00000   12.67209             9.76422
282.74157   153.94944   178.00000  16.47538             13.89174
284.75000   187.85625   160.00000  15.63121             13.13144
290.70229   214.83206   131.00000  15.14554             11.42963
350.48299   1305.73469  147.00000  13.98929             13.47960
417.35088   1057.22368  228.00000  18.83362             15.57094
430.67708   1258.34375  96.00000   15.51702             8.20547
431.51145   8.64885     131.00000  13.94629             12.11708
435.18750   1265.27344  128.00000  15.12967             10.86090
447.85827   1067.71260  254.00000  21.24539             15.45422
451.65896   1264.86127  173.00000  18.39607             12.00552
482.36413   935.95652   184.00000  19.55959             12.04562
494.69492   958.32203   236.00000  29.31116             10.37333
502.85714   1096.54286  140.00000  14.16894             12.66377
505.36441   1107.92373  118.00000  14.42158             10.43966
524.02174   940.72609   230.00000  20.16715             14.58558
531.03158   650.11228   285.00000  28.88117             13.40610
539.47938   1150.69072  194.00000  21.87258             11.34699
546.24534   1272.96894  322.00000  31.58149             13.07945
549.45000   893.14500   200.00000  20.74803             12.88499
547.33333   985.03175   189.00000  19.72636             12.60627
558.64550   1158.18519  189.00000  22.28366             10.95690
557.29231   632.33333   195.00000  17.29072             14.56652
562.89020   949.97647   255.00000  20.87357             15.66457
581.19281   1015.81699  306.00000  28.79823             13.92469
579.18966   929.06897   174.00000  19.20113             11.65987
580.04070   1130.65116  172.00000  17.85459             12.39216
588.60804   912.60302   199.00000  24.30222             10.88452
592.86290   1298.74597  248.00000  21.20408             15.02113
601.79251   1174.16715  347.00000  27.58593             16.49317
598.35507   611.87319   276.00000  23.67749             14.88703
595.96552   1163.66207  145.00000  17.77380             10.71437
598.07692   968.45299   117.00000  13.11837             11.37927
610.64530   1135.49573  234.00000  20.47246             14.93554
610.37255   1324.25000  204.00000  21.91502             11.97552
621.83258   905.37104   221.00000  19.75824             14.58976
620.35099   985.35099   151.00000  16.88306             11.53974
617.92188   1053.78906  128.00000  14.14606             11.75604
619.28889   1065.79259  135.00000  15.21038             11.77499
622.90179   958.34821   112.00000  13.60883             10.49447
628.24444   587.79444   180.00000  16.82828             13.64548
627.03731   1034.67910  134.00000  14.10625             12.15573
622.44000   1095.80000  25.00000   6.45922              4.86425
631.88043   1303.35145  276.00000  27.35977             12.95556
635.53416   1135.67702  161.00000  21.80065             9.48292
636.38636   1079.93939  132.00000  14.46868             11.70202
638.70370   1156.25926  135.00000  15.18394             11.84988
645.51402   1097.23832  214.00000  21.01517             13.35470
651.35625   891.60000   320.00000  28.11118             14.64824
642.42609   955.67826   115.00000  13.08482             11.40329
643.79375   1244.65625  160.00000  16.01023             12.81801
645.83007   1302.49673  153.00000  14.30161             13.69682
650.63229   1142.73094  223.00000  22.23473             13.02150
649.19883   1163.04094  171.00000  18.52686             11.87667
652.38806   1195.37015  335.00000  24.34707             17.93165
650.52778   942.08333   108.00000  15.37512             9.16924
650.25714   1081.82857  70.00000   10.14845             8.79907
654.94578   575.89759   166.00000  17.25674             12.30201
656.18831   553.63636   154.00000  17.93843             10.94008
658.86408   1222.03883  103.00000  13.63250             9.81035
657.04082   972.79592   49.00000   9.04732              6.88565
663.54185   1249.29075  227.00000  20.41026             14.22526
661.28571   958.57857   140.00000  14.99041             12.02128
658.15152   1108.78788  33.00000   7.78194              5.43191
659.21622   979.72973   37.00000   7.64458              6.18371
665.25150   1130.67066  167.00000  18.73918             11.48652
658.97368   1264.07895  38.00000   7.49690              6.43195
660.27451   1090.68627  51.00000   8.47372              7.64429
665.57297   1229.43243  185.00000  19.67060             12.16380
666.00820   1328.89344  244.00000  21.52707             14.57628
663.54839   989.77419   93.00000   12.11563             9.78111
662.52632   1153.75439  57.00000   9.29076              7.88092
663.58696   1012.00000  46.00000   8.53589              6.81879
667.65164   1306.79098  244.00000  26.82743             12.18475
670.32124   941.18653   193.00000  24.62431             10.96085
667.17822   1214.98020  101.00000  13.56959             9.53915
666.94737   1165.07895  38.00000   7.59436              6.41319
674.03182   534.41364   220.00000  19.31866             14.66348
674.03600   889.87600   250.00000  20.13459             16.13033
675.49451   1284.37912  182.00000  19.38063             12.27446
677.08649   1352.63243  185.00000  18.43313             12.82197
675.65000   993.08750   80.00000   11.82098             8.62449
679.48485   1073.24242  132.00000  15.18856             11.10829
675.98113   1090.35849  53.00000   9.99288              6.73803
677.50000   1213.58451  142.00000  14.90936             12.21945
681.76393   571.00000   305.00000  23.51886             16.93162
684.18026   523.12017   233.00000  18.99252             15.65319
682.48684   1024.11842  76.00000   10.33182             9.42422
682.46000   1001.70000  50.00000   8.64464              7.40572
686.78142   953.65574   183.00000  17.92219             13.09999
689.57674   781.20000   215.00000  24.83341             11.26096
688.22772   1339.03960  202.00000  18.44208             14.15981
692.73387   1314.52016  248.00000  28.80212             11.49509
689.48951   932.65734   143.00000  16.58620             11.18050
686.32609   1084.23913  46.00000   8.89180              6.59825
690.49048   491.63333   210.00000  19.50522             13.73433
691.03614   557.92771   166.00000  15.93800             13.28632
693.45230   909.58304   283.00000  25.74633             14.17175
696.85246   1362.14344  244.00000  25.02545             12.43476
699.77406   790.08787   239.00000  22.43380             13.90772
697.33898   1332.77966  118.00000  15.08797             10.36170
696.63235   1074.98529  68.00000   10.27505             8.40299
704.36486   620.16554   296.00000  21.85805             17.58785
700.13043   930.66087   230.00000  27.37632             11.04019
698.68750   990.37500   80.00000   10.78873             9.42288
697.46667   1003.13333  45.00000   8.40859              6.78676
701.62893   1259.74843  159.00000  15.64745             13.09442
699.34000   961.30000   50.00000   9.38659              6.79724
701.07317   1145.75610  82.00000   11.23033             9.29008
705.58596   837.55789   285.00000  24.27054             14.99440
707.78049   595.10244   205.00000  18.82320             13.95837
711.50996   645.19124   251.00000  22.96354             14.06450
714.64141   1365.37374  198.00000  18.45432             13.95933
714.32544   989.33728   169.00000  21.44706             10.29907
721.27318   582.71429   399.00000  28.04702             18.30287
713.85492   1308.11399  193.00000  21.11832             11.70892
714.72932   970.12782   133.00000  16.91644             10.11410
715.78626   1292.67939  131.00000  15.62112             10.83191
724.37153   717.14583   288.00000  22.22018             16.59629
721.31206   928.94326   141.00000  18.14864             10.66958
719.71154   1140.68590  156.00000  15.76320             12.64491
724.40000   1261.70222  225.00000  18.27326             15.94972
720.25424   1324.06780  59.00000   9.03262              8.36553
729.28024   446.99115   339.00000  23.35573             18.60729
725.82313   938.59184   147.00000  15.80974             11.91588
725.96377   1392.33333  138.00000  14.31074             12.52526
726.42742   1287.83065  124.00000  14.43728             11.01564
728.84756   1302.71951  164.00000  20.02754             10.74306
731.55967   1419.85597  243.00000  20.64752             15.30832
732.67660   681.95745   235.00000  19.19878             16.17622
733.82879   1178.10117  257.00000  22.11000             15.76806
730.13889   1044.61111  36.00000   7.34501              6.16353
736.62981   1338.29327  208.00000  21.69466             12.33833
734.90173   822.72832   173.00000  15.56785             14.15706
734.24615   1024.95385  130.00000  16.07515             10.38496
732.49296   1239.61972  71.00000   9.97500              9.09351
738.81588   863.59928   277.00000  26.03732             13.62364
736.62667   1367.36667  150.00000  14.74752             13.07605
735.65000   1000.33000  100.00000  13.04475             9.75972
736.62366   1356.92473  93.00000   13.55401             8.97767
739.73840   645.81857   237.00000  20.35028             14.88663
739.60000   1262.23636  165.00000  16.63738             12.92536
738.44186   1289.55814  43.00000   8.56313              6.34342
746.61411   1400.23237  241.00000  24.12458             12.84132
740.71429   1320.52381  63.00000   9.36860              8.56682
747.49741   887.51295   193.00000  19.78756             12.65378
746.19608   948.10784   102.00000  13.84061             9.65833
752.34156   958.85597   243.00000  18.98128             17.07638
749.51092   1313.52402  229.00000  21.94488             13.57048
753.92977   595.46154   299.00000  21.52485             18.36028
747.38776   1173.89796  49.00000   8.78717              7.08326
752.45771   772.42289   201.00000  19.24400             13.38493
754.96257   454.23529   187.00000  18.36838             12.97980
754.91736   872.24380   242.00000  19.98410             16.08773
755.79042   1225.61078  167.00000  19.39680             11.01509
756.89372   1486.42029  207.00000  18.65409             14.64866
759.17181   610.90308   227.00000  17.96520             16.38560
758.00000   975.87097   93.00000   14.85434             8.02058
753.53659   1366.41463  41.00000   8.42447              6.12970
757.86525   1143.29787  141.00000  14.82009             12.20346
759.90909   1261.24242  132.00000  15.37541             11.17804
759.66176   833.27451   204.00000  18.87143             13.83267
762.82072   1600.22709  251.00000  19.09389             16.90601
760.23894   1168.56637  113.00000  13.44360             10.98280
763.57143   1015.96525  259.00000  20.82648             16.75978
764.07960   1244.55224  201.00000  19.89335             13.85318
762.51705   1577.11364  176.00000  15.54982             14.55994
759.32558   1352.27907  43.00000   9.30044              5.96515
762.17757   1367.97664  214.00000  21.18134             13.24803
763.27869   1312.32787  61.00000   9.61612              8.18096
762.75862   1343.68966  29.00000   7.51644              4.98918
766.95283   1460.89623  212.00000  17.91690             15.28544
768.95676   1277.87027  185.00000  16.29652             14.56189
769.06358   1557.58960  173.00000  15.95867             13.82447
770.21212   1488.27273  165.00000  18.90759             11.13929
773.08451   859.03873   284.00000  19.38627             19.17394
777.95111   796.59556   225.00000  18.64725             16.06841
771.93069   1292.11881  101.00000  11.56707             11.14793
776.92718   1424.78641  206.00000  19.71007             13.41421
771.65217   775.02174   46.00000   8.30025              7.01160
777.13194   1231.51389  144.00000  20.66106             9.21683
776.89394   1160.61364  132.00000  16.02415             10.77275
777.93642   1335.20809  173.00000  19.63478             11.35583
779.07860   553.23581   229.00000  17.39675             16.83461
778.20183   1041.74312  109.00000  13.23692             10.49741
784.56585   1388.87317  205.00000  18.65349             14.24775
782.60656   1287.55738  61.00000   10.50170             7.37106
793.93462   778.26154   260.00000  25.48569             13.28827
789.11236   1065.06180  178.00000  20.48499             11.07942
789.34419   940.44651   215.00000  17.95809             15.47070
786.53731   1496.43284  134.00000  15.66197             11.00254
786.29213   1180.80899  89.00000   12.86259             8.95293
789.61350   1476.86503  163.00000  17.16273             12.18612
791.11176   1085.41765  170.00000  19.06437             11.39892
788.01351   1104.44595  74.00000   10.20234             9.34462
789.76577   1354.22523  111.00000  12.68633             11.31840
789.33803   1278.50704  71.00000   10.38789             8.84025
792.37226   1339.21168  137.00000  14.33951             12.37960
797.27645   827.08532   293.00000  22.69821             16.71559
793.73469   860.72449   196.00000  16.10786             15.52063
791.89600   1045.85600  125.00000  12.92535             12.40317
791.05263   1290.92105  38.00000   7.12765              6.74342
792.05128   1363.05128  39.00000   7.94326              6.21000
804.06636   1412.75744  437.00000  29.08679             20.94854
796.46154   1272.28846  104.00000  11.67903             11.54652
794.32692   1452.96154  52.00000   9.66352              6.83584
802.71930   960.33333   228.00000  23.11500             12.80591
805.84667   464.37667   300.00000  27.39330             14.51715
800.54400   1190.29600  125.00000  14.44060             11.02670
804.50000   1391.03571  168.00000  21.48066             10.36885
802.13043   974.44928   207.00000  18.36072             14.42290
801.57895   1150.15789  76.00000   10.55605             9.14605
800.00000   1167.40000  35.00000   7.38741              6.01027
803.62500   1095.91964  112.00000  13.69836             10.44039
806.45701   1464.33937  221.00000  19.57495             14.59866
812.91246   597.62290   297.00000  30.55815             12.89755
810.76064   1323.69149  188.00000  20.52143             11.87190
806.15556   1245.82222  45.00000   8.06118              7.09868
811.77987   1448.88679  159.00000  19.47862             10.43846
815.56371   1132.17761  259.00000  26.22061             12.88209
808.53425   1206.05479  73.00000   9.95392              9.54746
815.72764   1287.47561  246.00000  22.39648             15.52123
811.62857   1369.92857  140.00000  14.35096             12.52156
817.11278   809.41729   266.00000  22.04517             15.74176
813.19310   1515.91724  145.00000  16.68441             11.24952
815.93171   1008.20000  205.00000  24.32326             11.26428
812.93651   1120.38889  126.00000  13.82327             11.61640
811.82716   1174.66667  81.00000   11.21186             9.27169
817.27734   865.01953   256.00000  21.91153             15.26919
817.15736   1222.74619  197.00000  19.59658             13.03214
816.21569   1211.15686  51.00000   8.41050              7.75912
818.92903   1436.87097  155.00000  15.17725             13.20071
823.02745   779.77255   255.00000  25.74991             13.28808
823.72222   1060.66667  144.00000  18.15902             10.13870
820.47525   1343.73267  101.00000  12.09859             10.89262
821.72941   1408.37647  85.00000   11.90906             9.09330
825.74074   1002.84444  135.00000  14.62987             11.90458
824.59459   1081.97297  185.00000  18.71041             12.98536
827.31839   1504.31390  223.00000  23.16357             12.71204
827.63694   1336.32484  157.00000  17.63991             11.99328
830.97368   688.85714   266.00000  26.16344             13.61809
830.35798   723.32685   257.00000  22.30312             14.94926
826.08974   1106.05128  78.00000   11.65860             8.77692
826.27119   1177.52542  59.00000   9.45826              7.90612
831.13063   466.35586   222.00000  19.83551             14.31944
829.06667   990.39167   120.00000  14.63970             10.48588
831.21019   1116.01274  157.00000  14.62256             13.74541
834.14054   1042.14054  185.00000  18.54804             12.86218
836.15319   616.08085   235.00000  21.58394             14.24297
832.51031   672.45876   194.00000  18.85075             13.17924
832.56250   1131.64062  128.00000  16.88680             9.83397
836.45575   1305.33186  226.00000  19.06547             15.32155
834.19620   1380.19620  158.00000  15.02666             13.52375
835.74820   924.20863   139.00000  13.58289             13.09770
838.06736   483.37824   193.00000  18.47298             13.32316
840.76667   1237.30667  150.00000  19.04989             10.21661
841.26047   935.97674   215.00000  18.20697             15.27631
843.07111   1335.61333  225.00000  23.67192             12.29031
843.96727   597.38909   275.00000  22.22420             16.37187
836.28571   1247.74286  35.00000   7.21174              6.19893
840.61719   1400.17969  128.00000  13.89812             11.74653
845.54054   727.47568   185.00000  21.90725             10.90469
852.38211   1118.83333  246.00000  28.72769             11.16196
851.57269   1512.40088  227.00000  21.25082             13.67987
849.87050   1060.69784  139.00000  15.99871             11.22862
849.76699   993.56311   103.00000  13.51094             9.85023
855.46769   1016.18154  325.00000  24.40077             17.88742
851.14815   1175.09259  108.00000  14.96229             9.36171
852.55455   984.44545   110.00000  15.77688             9.05007
853.13131   1051.67677  99.00000   16.44980             7.71866
856.39877   882.25153   163.00000  18.88635             11.20888
854.54217   1296.69880  83.00000   11.29522             9.35759
860.46970   730.21717   198.00000  21.06533             12.35696
857.79245   1038.83019  106.00000  15.25473             9.19963
861.59694   1402.79082  196.00000  18.23118             13.85634
860.83607   1464.15847  183.00000  19.70987             12.27110
859.64000   1314.74286  175.00000  18.14971             12.65925
862.31126   688.36424   151.00000  15.62698             12.31239
863.01724   1155.79885  174.00000  19.06093             11.93782
862.62637   1455.27473  91.00000   13.20006             8.87946
865.68293   703.56585   205.00000  17.88452             14.72107
865.07647   1178.18235  170.00000  18.55550             12.09023
868.36910   948.52790   233.00000  23.12400             13.06432
863.66387   1444.71429  119.00000  13.95011             10.92348
862.90909   1211.63636  55.00000   9.82039              7.27156
863.83784   1219.83784  74.00000   10.26687             9.21331
870.53265   1363.20962  291.00000  21.77909             17.48094
866.49412   1039.77059  170.00000  20.43385             11.05350
870.49324   887.39865   148.00000  15.51097             12.28937
869.12658   923.94304   158.00000  15.66362             12.89935
874.41500   1418.34000  200.00000  22.01437             11.87107
869.56738   738.18440   141.00000  15.86400             11.31373
875.77551   1064.24490  147.00000  17.92993             10.50121
876.06011   1190.50820  183.00000  17.63098             13.85866
874.53191   1485.20213  188.00000  18.18136             13.23125
874.67797   1026.49153  118.00000  13.11773             11.45782
877.25967   1126.01105  181.00000  20.28969             11.47561
879.58049   962.39024   205.00000  20.39307             12.87016
878.56725   1460.07602  171.00000  16.85177             13.02424
874.77333   1861.69333  75.00000   10.94982             8.77657
880.72984   1155.11290  248.00000  23.95000             14.49560
878.28351   1315.89691  194.00000  18.71685             13.27803
