# Filename: Nuclei_bidi_pfa_004.npz
# Voxel size (nm): (108, 108)
# Area quantity: voxels
# Num nuclei detected: 1861
Y           X           AREA       MAJOR_AXIS_LENGTH    MINOR_AXIS_LENGTH
43.76724    1023.17672  232.00000  18.89002             15.94627
70.79032    1022.00000  248.00000  20.68691             15.38725
105.87709   1012.17877  179.00000  15.93217             14.44328
129.02198   1036.59890  182.00000  18.02475             12.96484
168.20675   561.22363   237.00000  20.70975             14.68666
170.11429   1086.36190  210.00000  18.17027             14.78330
171.27881   1107.25651  269.00000  21.02537             16.34053
175.16232   1065.68116  345.00000  27.49066             16.17050
196.85167   524.32536   209.00000  17.39393             15.32108
220.20290   691.54348   138.00000  15.37470             11.46523
222.89615   488.16923   260.00000  19.96977             16.65280
230.42564   578.00000   390.00000  27.32907             18.33276
227.99219   446.70312   256.00000  19.56373             16.68755
228.41420   597.54438   169.00000  16.65781             12.99617
229.69565   415.79348   184.00000  15.98076             14.74474
233.44762   1337.64762  105.00000  12.60247             10.80143
235.68182   736.54545   110.00000  12.27939             11.62130
241.11947   776.34513   226.00000  20.19198             14.32829
241.19203   390.19565   276.00000  19.57141             18.11847
244.12102   1750.31847  157.00000  14.99805             13.40610
245.13014   1179.80137  146.00000  15.43933             12.08470
248.07265   1116.50427  234.00000  17.99629             16.68965
257.33790   1159.22831  219.00000  22.88199             13.48500
253.94652   1719.02139  187.00000  20.11481             11.86935
256.82927   1372.30081  123.00000  13.86522             11.39052
257.74051   1223.60759  158.00000  16.12330             12.74847
257.98058   1170.57282  103.00000  12.75124             10.44610
262.49545   353.62273   220.00000  19.39913             14.70237
264.70531   1467.76329  207.00000  17.44558             15.14866
266.00000   1320.75956  183.00000  16.74773             13.92990
266.15385   1497.60633  221.00000  17.80465             15.97483
277.35714   344.93367   196.00000  18.17886             13.82358
277.83432   1771.73964  169.00000  18.74340             11.52570
278.16667   1278.04545  198.00000  17.88030             14.21832
278.50971   1510.18932  206.00000  19.39487             13.56187
278.70325   505.14634   246.00000  21.53332             14.70120
288.85827   1244.02756  254.00000  19.98060             16.28490
293.46792   1464.10943  265.00000  26.81922             13.30259
292.85106   463.76596   94.00000   12.41217             9.77754
297.70849   1148.32103  271.00000  25.10521             14.03804
299.11798   1281.04494  178.00000  18.95464             12.03437
304.09848   449.39394   264.00000  22.95506             14.95051
308.33333   1545.67879  165.00000  16.53362             12.78489
310.46063   529.50394   254.00000  19.62858             16.56913
314.77477   410.46847   333.00000  22.86808             19.08558
311.15179   1533.68750  112.00000  13.57848             10.51432
314.92308   1707.23776  143.00000  16.10824             11.35817
317.06061   1459.50000  132.00000  13.78412             12.18544
320.58525   495.27650   217.00000  18.21405             15.23687
319.45255   1584.72263  137.00000  13.65806             12.80570
324.83133   464.66265   249.00000  18.53112             17.14831
324.38415   1781.98780  164.00000  15.19226             13.80359
328.74503   1235.55298  302.00000  26.06935             15.10468
329.15068   1290.36073  219.00000  18.55970             15.14545
328.66667   1424.34426  183.00000  16.75214             13.98899
330.08780   1533.27805  205.00000  20.48766             12.80730
329.17500   1722.77500  160.00000  16.38172             12.51956
332.23171   1139.47967  246.00000  21.79656             14.48673
334.20611   509.83969   262.00000  20.34507             16.44824
332.42541   1205.94475  181.00000  16.59938             13.95383
333.83529   1817.46471  170.00000  18.87827             11.72646
337.69254   805.81194   335.00000  22.46358             19.05613
336.38776   602.83265   245.00000  19.11367             16.56976
334.95349   1627.84884  86.00000   11.51769             9.54614
339.20792   321.76733   202.00000  16.48689             15.69419
337.86034   1336.10615  179.00000  16.08886             14.25887
338.50898   1598.00599  167.00000  16.18730             13.57633
339.62871   1454.60396  202.00000  17.66806             14.65767
341.50292   1576.10526  171.00000  17.60540             12.44126
343.33649   1502.08057  211.00000  18.33753             14.85537
346.29020   626.19608   255.00000  21.98018             14.92226
347.59690   1361.98450  129.00000  14.95855             11.28603
349.12209   1215.48837  172.00000  16.97281             12.99944
350.54217   844.32932   249.00000  20.13460             15.76888
350.74860   1155.32402  179.00000  16.41621             13.91419
356.30928   637.14089   291.00000  21.75171             17.32362
356.59906   369.91509   212.00000  19.31575             14.08824
353.92500   1375.44375  160.00000  15.66612             12.99354
355.65909   436.65909   220.00000  23.23848             12.22663
358.70800   1105.28000  250.00000  20.88488             15.96156
356.29012   1782.51852  162.00000  15.71444             13.19748
356.97887   681.98592   142.00000  15.07541             12.13958
364.23887   424.07287   247.00000  20.42115             15.51031
364.89641   716.12351   251.00000  23.14189             13.93230
360.52727   1631.23636  110.00000  12.98133             10.81906
363.78235   1128.89412  170.00000  16.22495             13.35848
366.28448   1400.90517  232.00000  23.89705             12.46413
365.46269   596.04851   268.00000  20.47958             16.72219
365.22059   1365.18137  204.00000  24.95108             11.25730
366.43860   399.21491   228.00000  18.62948             15.63406
364.75168   674.51678   149.00000  16.24669             11.71904
366.45714   1802.79429  175.00000  18.46794             12.10856
366.55556   340.52525   198.00000  17.51686             14.41411
368.45064   384.27039   233.00000  19.55118             15.57185
367.80741   812.28519   270.00000  20.48819             16.97664
373.15012   780.14528   413.00000  27.86799             19.67420
370.84279   761.96507   229.00000  20.48091             14.66108
369.49153   1078.83616  177.00000  16.22484             14.22446
374.32597   1313.09392  181.00000  22.52022             10.34187
371.98171   1091.11585  164.00000  15.42802             13.79996
373.87113   1039.81443  194.00000  20.18584             12.55928
373.81935   1501.27097  155.00000  15.33571             12.92846
376.55026   702.55556   189.00000  18.39620             13.11521
378.31330   303.26609   233.00000  19.24723             15.46502
383.38342   972.04663   193.00000  17.23216             14.33942
387.00735   323.74632   272.00000  23.64458             14.78345
382.61207   342.14655   116.00000  13.54345             11.24167
387.90800   353.46800   250.00000  18.62618             17.43610
389.41532   667.94355   248.00000  19.65047             16.22075
390.20940   558.07692   234.00000  17.84614             16.74242
391.37395   950.74790   238.00000  20.51328             15.41640
398.13846   1610.16923  325.00000  28.36041             15.75640
395.63158   421.19838   247.00000  19.91691             15.88818
396.68072   703.24699   166.00000  16.65226             12.74018
400.45545   386.65842   202.00000  19.12794             14.21844
398.24000   1511.78000  100.00000  12.75449             10.02931
400.70115   719.13218   174.00000  16.44263             13.52819
401.78804   980.75543   184.00000  18.08078             13.35538
402.57955   370.30114   176.00000  16.11043             13.95747
405.01117   1330.17318  179.00000  17.74417             13.00163
403.07051   1813.23718  156.00000  16.13639             12.36916
407.01361   1683.74150  147.00000  14.53952             12.91283
409.18935   1639.01183  169.00000  16.02570             13.44451
409.84685   244.60360   111.00000  12.50289             11.31669
414.18288   523.30350   257.00000  23.12779             14.31820
415.44737   1816.11184  152.00000  18.18983             10.72828
419.47978   360.73046   371.00000  30.05304             16.32953
417.70652   1426.66304  184.00000  16.64092             14.11960
422.65939   1654.85590  229.00000  23.07545             13.05308
424.11968   407.32979   376.00000  29.11071             16.71544
420.31214   749.35838   173.00000  17.04076             12.95652
424.32061   1459.55725  262.00000  21.24127             15.94924
421.52857   1670.51429  140.00000  14.20778             12.56559
425.51408   317.89789   284.00000  19.65121             18.67508
427.23438   435.41797   256.00000  19.72933             16.55345
428.55472   463.36226   265.00000  22.22496             15.26550
429.42748   1635.98855  262.00000  19.19237             17.48352
432.57958   273.77477   333.00000  25.55191             16.95465
430.58484   501.66065   277.00000  21.92755             16.16022
432.13734   1488.25322  233.00000  19.47168             15.64926
435.58919   288.43784   185.00000  20.68289             11.50354
440.23906   335.31987   297.00000  25.41836             15.03403
436.47170   194.20126   159.00000  15.02619             13.53842
443.27019   675.49379   322.00000  25.95329             16.11190
443.97826   1523.38043  276.00000  20.81082             17.14071
444.81977   1647.29070  172.00000  15.01703             14.74318
444.95758   1669.10909  165.00000  15.44927             13.70637
442.25333   92.25333    75.00000   14.27454             6.74467
449.31183   1454.34409  186.00000  17.26201             13.76894
448.07843   74.31373    102.00000  12.98301             10.28818
448.65385   437.89560   182.00000  15.83494             14.66994
452.93220   727.75593   295.00000  22.03818             17.30652
451.88936   1578.93191  235.00000  19.26594             15.60879
453.96078   464.93137   204.00000  16.93819             15.35647
457.20084   226.86192   239.00000  20.58259             14.86032
456.48246   350.99123   228.00000  22.62965             12.99250
460.48361   391.34973   366.00000  28.49926             17.11342
458.98065   321.23226   155.00000  15.55950             12.71120
465.59480   52.75093    269.00000  25.02178             14.40987
462.43333   508.28333   180.00000  16.71515             13.72602
464.14201   1548.09467  169.00000  23.43531             9.80765
461.59375   1731.02083  96.00000   12.10431             10.11623
465.72611   1097.75796  157.00000  16.41519             12.36376
472.47032   521.65753   219.00000  20.97129             13.40122
476.70168   1509.72689  238.00000  25.32931             12.06050
471.53476   1649.18182  187.00000  17.45658             13.82792
471.53933   348.02247   178.00000  16.41002             13.85737
475.51724   368.86782   174.00000  17.11881             13.19160
480.64977   696.38249   217.00000  18.21674             15.24467
478.18721   1553.84018  219.00000  21.14602             13.39613
478.78646   1637.75000  192.00000  16.23152             15.09607
481.31364   1688.66818  220.00000  18.12119             15.72710
482.43915   10.02646    189.00000  16.32817             15.28037
483.27437   395.83755   277.00000  19.62178             18.25813
480.87429   1092.62857  175.00000  15.45955             14.41287
482.20710   317.92899   169.00000  15.73441             14.02592
484.24365   1614.00508  197.00000  17.82899             14.17365
486.60648   1461.63426  216.00000  19.69865             14.24432
489.63052   1018.93173  249.00000  20.98319             15.19622
492.37079   737.43071   267.00000  21.63089             15.81116
489.83243   974.43243   185.00000  16.10910             14.70637
488.97826   1603.63043  92.00000   12.65229             9.42641
493.84337   1674.93574  249.00000  20.32485             15.68977
491.31325   1039.36145  166.00000  18.60900             11.37833
496.48472   699.34498   229.00000  17.96413             16.31172
499.94884   1470.34419  215.00000  19.90255             13.84625
502.80157   1069.11227  383.00000  25.90308             19.21461
499.24742   319.82474   194.00000  18.24915             13.66509
500.33808   1498.26335  281.00000  22.74215             15.87849
502.25532   341.40426   141.00000  18.00541             11.00767
503.67279   378.27941   272.00000  19.23067             18.23978
505.37441   1651.40758  211.00000  19.23261             13.99906
508.01376   491.94954   218.00000  26.06227             11.23799
507.18677   934.29183   257.00000  20.37569             16.26531
507.04950   393.89109   202.00000  18.18480             14.20134
509.88258   1091.73485  264.00000  20.96837             16.08727
506.25000   1716.16500  200.00000  18.82814             13.55823
511.94366   506.63380   213.00000  21.00477             12.94636
509.13139   791.54015   137.00000  14.71723             11.89272
511.69802   761.51485   202.00000  16.91278             15.33714
514.41921   715.53275   229.00000  19.06885             15.40472
509.75610   773.39024   41.00000   8.23143              6.42226
513.60000   1460.66061  165.00000  17.13072             12.33973
515.85502   356.62454   269.00000  23.94766             14.35112
517.13537   807.03493   229.00000  18.88491             15.51248
517.89247   1446.40860  186.00000  17.43047             13.67794
521.62264   887.43082   318.00000  25.12122             16.22804
519.27966   1907.13559  118.00000  14.97884             10.53746
522.08922   338.50186   269.00000  20.63413             16.66445
523.43668   1619.49782  229.00000  17.89735             16.37779
529.75833   401.58056   360.00000  31.37616             14.78920
525.39114   626.76015   271.00000  20.00284             17.42548
523.85185   1051.96914  162.00000  16.82409             12.44209
526.26923   755.44231   208.00000  19.60743             13.56569
524.71357   1734.70352  199.00000  17.65820             14.39715
530.22388   1675.37313  268.00000  21.33155             16.41517
531.19844   1526.25292  257.00000  24.26525             13.62946
529.93399   860.05611   303.00000  20.93437             19.63012
533.10256   737.24176   273.00000  22.05430             15.76030
532.21186   1072.03390  236.00000  19.76070             15.24373
534.23204   517.70166   181.00000  18.18524             12.88818
534.00000   791.78512   121.00000  14.23121             10.87754
533.12081   1121.69799  149.00000  17.46631             10.98749
534.67568   1634.31351  185.00000  16.30735             14.51350
536.86751   712.28707   317.00000  21.19904             19.23140
535.61272   847.12717   173.00000  16.95298             13.05464
538.03977   1705.25568  176.00000  15.77352             14.44542
539.21858   904.38251   183.00000  18.36151             12.90362
541.32287   301.97309   223.00000  17.39859             16.41952
541.67978   871.38764   178.00000  18.14904             12.52257
543.34653   127.42079   202.00000  18.91285             13.73314
542.84431   1117.19162  167.00000  16.82345             12.96965
544.80165   1655.20661  121.00000  12.86946             12.05251
551.23109   601.31933   238.00000  20.49187             14.93461
553.29010   795.79522   293.00000  22.09906             17.14473
554.78988   379.56420   257.00000  21.96973             15.21615
553.02315   659.04630   216.00000  17.83580             15.79934
554.43023   393.34884   172.00000  15.82853             13.88960
554.36723   168.09605   177.00000  19.32013             11.77271
556.04592   642.39286   196.00000  16.67931             15.08992
555.92188   1650.18750  128.00000  15.78642             10.70649
558.19024   618.98049   205.00000  18.34230             14.30229
558.69378   1024.37321  209.00000  19.57811             13.63475
557.03271   1707.21963  214.00000  18.25691             15.22752
559.56225   243.60241   249.00000  20.80138             15.32108
562.17647   689.43137   357.00000  26.97765             17.49917
560.83333   774.09524   210.00000  18.39035             14.57021
560.77108   750.95181   166.00000  17.05269             12.51091
561.72973   1495.60618  259.00000  18.63181             17.92221
563.08947   1736.80000  190.00000  17.61625             13.80978
562.88953   1048.25581  172.00000  18.96040             11.76931
563.91371   716.61929   197.00000  19.37648             13.05133
561.29412   1828.55294  85.00000   10.54920             10.26202
566.80328   291.01639   244.00000  20.82965             14.96205
566.51029   345.66667   243.00000  19.19831             16.26325
572.65891   521.46253   387.00000  33.88310             14.65168
568.45683   888.82014   278.00000  21.19822             16.84167
570.81788   1069.35099  302.00000  20.78149             18.84931
572.92784   270.57216   194.00000  17.26537             14.37093
574.15023   361.42254   213.00000  17.58574             15.64431
574.87826   617.92609   230.00000  19.63483             14.97683
577.81181   721.45387   271.00000  22.88325             16.67112
575.54839   1707.35484  186.00000  15.66538             15.19995
576.95860   205.15287   314.00000  24.73101             16.35595
575.97656   1728.65625  128.00000  13.74722             11.91593
584.12411   502.73404   282.00000  28.08755             12.81658
581.71765   744.27451   255.00000  21.05085             15.47762
582.63374   339.53086   243.00000  22.27943             13.91392
585.39924   1600.43726  263.00000  19.73947             17.03672
587.47980   728.78283   198.00000  20.97415             12.38159
585.09290   811.04372   183.00000  16.37433             14.44481
589.13027   425.10345   261.00000  24.54025             13.63790
586.64671   786.82036   167.00000  15.52316             13.73717
586.93007   798.46154   143.00000  16.01230             11.55502
589.68511   262.41277   235.00000  18.33355             16.35960
589.47573   324.41262   206.00000  20.43655             13.01838
590.51364   1006.50455  220.00000  18.35694             15.37535
593.88608   562.10127   237.00000  19.78739             15.31838
593.03902   992.71707   205.00000  17.92519             14.91036
594.59111   1084.01778  225.00000  19.26517             14.95489
593.80124   677.18012   161.00000  16.59372             12.45390
596.00000   757.63889   252.00000  22.29591             14.48084
598.29110   356.58904   292.00000  24.43348             15.27068
596.25773   770.88660   194.00000  17.83459             14.05142
597.04869   544.20974   267.00000  20.00038             17.21486
593.24590   668.13115   61.00000   10.59819             7.45762
599.97368   295.60965   228.00000  20.89232             13.93754
607.43917   1103.39169  337.00000  29.43242             15.55088
600.68254   1095.29365  126.00000  14.44969             11.15084
605.39184   639.11429   245.00000  18.35832             17.16655
607.45082   146.22131   244.00000  20.00454             15.59674
606.52000   781.74000   200.00000  17.32832             14.81896
608.12857   792.67857   140.00000  19.76058             9.64228
607.11494   677.70690   174.00000  18.41338             12.19971
607.82178   1252.03465  202.00000  16.99831             15.42132
608.10550   599.03670   218.00000  20.57540             13.73451
610.57447   1333.64894  188.00000  19.65002             12.19641
610.25610   1348.23577  246.00000  21.18694             14.92651
611.57826   897.29130   230.00000  18.21280             16.11113
613.00556   809.86111   180.00000  20.83116             11.12646
613.03704   1370.32099  243.00000  18.48048             16.78461
613.46800   503.40000   250.00000  20.15874             15.84452
616.52459   1629.34016  244.00000  21.53755             14.71848
617.06034   820.73276   116.00000  18.49132             8.19005
