# Filename: Nuclei_416_ctrl_60x_007.npz
# Voxel size (nm): (108, 108)
# Area quantity: voxels
# Num nuclei detected: 1566
Y           X           AREA       MAJOR_AXIS_LENGTH    MINOR_AXIS_LENGTH
23.77606    1065.64093  259.00000  20.40892             16.21884
28.06081    1170.55068  296.00000  23.50867             16.14123
34.99301    913.94406   143.00000  15.29024             11.99083
40.21560    980.80275   218.00000  20.23603             13.79799
40.50584    1127.15953  257.00000  19.61718             16.74029
46.32195    794.17073   205.00000  18.17094             14.46086
58.27841    406.03409   176.00000  16.02789             14.08199
67.26667    674.17778   225.00000  19.48217             14.88898
74.12155    624.79558   181.00000  17.18049             13.61072
78.89167    720.61667   120.00000  14.59585             10.55884
83.25103    524.36214   243.00000  23.63936             13.34999
82.89848    1096.71066  197.00000  19.15170             13.52539
82.04630    585.91204   216.00000  19.64746             14.41079
85.85185    815.85714   189.00000  18.55029             13.05149
96.57778    970.10222   225.00000  19.23744             14.92691
103.16393   716.11475   183.00000  18.73512             12.54868
105.24917   655.27575   301.00000  21.45487             17.98755
108.71889   603.15207   217.00000  18.31757             15.19438
111.25463   560.76852   216.00000  20.16356             13.68085
113.47847   841.14354   209.00000  18.52165             14.45332
116.47451   1136.16471  255.00000  20.40520             16.23115
115.67725   895.48148   189.00000  19.50492             12.99419
114.88415   823.88415   164.00000  16.86756             12.41291
115.73485   690.76515   132.00000  14.19105             11.92911
120.56410   674.73932   234.00000  19.47713             15.36010
117.93617   868.65106   235.00000  19.36660             15.50436
120.72691   537.26908   249.00000  19.39322             16.64443
126.85714   1102.03571  140.00000  19.20303             9.82908
130.09626   935.97861   187.00000  16.23558             14.73451
131.32919   978.63354   161.00000  16.00807             13.06774
133.73377   806.79221   154.00000  14.09430             13.95888
134.54198   664.83206   131.00000  13.80755             12.15618
148.00000   644.42616   237.00000  19.95433             15.28351
149.12544   984.81533   287.00000  20.86626             17.82719
146.00725   1075.49275  138.00000  14.78848             11.89912
153.87831   863.63492   189.00000  18.17509             13.32044
153.97368   850.15789   190.00000  17.74398             13.65222
152.12381   1119.38095  105.00000  12.53655             10.94928
166.23019   421.40000   265.00000  21.13185             16.23318
166.09160   364.99237   131.00000  15.38248             11.04363
170.34762   1124.82857  210.00000  17.59604             15.28818
176.68868   780.50000   106.00000  14.47432             9.39891
179.37815   374.36975   119.00000  15.03409             10.15286
186.76836   396.65537   177.00000  16.16356             14.04845
187.71282   685.60000   195.00000  16.61752             15.20387
189.73377   848.49351   154.00000  16.40488             12.29210
190.63415   924.26829   41.00000   7.99174              6.54886
200.48864   837.35795   176.00000  24.76611             9.47467
202.13793   1141.53793  145.00000  15.27477             12.06343
223.31263   675.93587   499.00000  29.22118             22.63937
221.19876   858.48447   161.00000  20.10383             11.00628
218.82090   1077.67164  134.00000  15.32072             11.21532
222.94538   1157.59244  238.00000  22.60440             13.55535
219.37736   931.20755   106.00000  13.12090             10.46679
224.90556   417.93889   180.00000  18.95275             12.15693
227.76684   1023.96891  193.00000  18.53659             13.36172
228.84746   1092.05650  177.00000  16.21555             14.15171
230.43750   898.32386   176.00000  16.81365             13.53166
230.67059   1005.77059  170.00000  15.07829             14.44816
231.26866   437.57463   134.00000  15.19198             11.28287
233.64583   846.88542   96.00000   11.76994             10.41241
238.03676   877.75000   136.00000  14.09321             12.31001
243.11348   612.53546   282.00000  20.08182             18.06012
241.72289   963.62651   166.00000  15.33954             13.88019
242.17742   923.70161   124.00000  13.28078             11.91973
242.76821   1050.94040  151.00000  15.68515             12.27283
245.55721   1069.28856  201.00000  17.95427             14.28985
257.16013   1038.80719  306.00000  25.62360             15.61279
253.43210   1172.50617  162.00000  14.72186             14.05395
251.32812   859.25000   64.00000   10.93110             7.48588
256.57143   559.12000   175.00000  16.44335             13.58323
260.01717   776.12017   233.00000  21.73284             13.99561
259.52381   658.33333   147.00000  16.99523             11.26375
260.17500   1111.30625  160.00000  16.67388             12.29191
261.01562   503.25000   192.00000  18.61948             13.20585
262.02073   818.73057   193.00000  17.57064             14.33827
259.71875   908.43750   96.00000   11.86896             10.27779
262.94697   338.85606   132.00000  14.25508             12.21243
264.28926   145.85124   121.00000  13.19823             11.76555
266.29707   630.22176   239.00000  18.77717             16.42625
263.25000   843.58750   80.00000   12.02861             8.49647
270.55600   1186.16400  250.00000  20.42333             15.74315
266.95082   919.90164   61.00000   9.51090              8.15254
271.26316   904.26316   38.00000   7.72520              6.25763
276.50610   588.07927   164.00000  16.49392             12.91041
278.55405   371.36486   148.00000  18.71389             11.04010
276.06796   413.74757   103.00000  13.06598             10.10202
278.72269   1097.10084  119.00000  14.42766             10.51590
280.53723   612.34043   188.00000  16.39311             14.66020
284.39672   729.02295   305.00000  23.07608             17.09215
282.90909   701.69697   264.00000  21.40877             15.76541
278.91304   857.43478   69.00000   10.67797             8.29497
286.91085   770.07364   258.00000  24.05759             13.88306
285.66304   1199.82609  184.00000  18.67159             12.58127
288.12617   155.34112   214.00000  17.44560             15.73383
284.39394   1069.57576  66.00000   10.13334             8.24334
291.27461   883.61140   193.00000  19.06177             12.93869
290.99550   322.27928   222.00000  20.93084             13.60192
293.67917   754.54583   240.00000  18.54554             16.60670
295.82533   668.30131   229.00000  20.26386             14.43955
293.56250   916.66964   112.00000  12.46023             11.42389
299.37956   522.48175   137.00000  16.07230             10.94971
300.72826   1072.85870  184.00000  17.46409             13.54317
306.19118   1098.02941  272.00000  30.86239             11.72113
297.59259   901.07407   27.00000   6.42150              5.26541
306.54000   464.85200   250.00000  19.27492             17.15545
302.97163   963.03546   141.00000  16.00266             11.23297
304.44262   819.78689   183.00000  16.52929             14.10317
309.57438   1049.17769  242.00000  21.93769             14.11506
310.81132   413.60849   212.00000  20.07808             13.51866
308.33083   604.94737   133.00000  17.23277             9.91710
304.43182   903.25000   44.00000   8.00580              7.10416
309.13333   399.73846   195.00000  17.52701             14.71854
311.43636   536.32727   165.00000  20.76484             10.22595
310.57200   590.56000   250.00000  20.47879             15.62762
310.93506   926.89610   77.00000   10.98978             8.93978
322.60236   287.48819   254.00000  20.36129             16.01734
319.67832   754.25874   143.00000  15.68067             11.68847
319.16071   925.42857   56.00000   9.62555              7.54015
327.18889   998.88333   180.00000  19.20052             12.07643
327.29714   1283.77714  175.00000  20.18623             11.10162
328.19841   564.45635   252.00000  19.42798             16.53437
330.03620   350.82805   221.00000  17.35051             16.23149
331.04167   850.70833   264.00000  21.99438             15.40005
335.71080   1217.27875  287.00000  25.21795             14.58831
334.17431   615.14679   109.00000  13.96867             9.99126
333.24706   835.18824   85.00000   12.48015             8.69191
333.91034   980.23448   145.00000  15.30791             12.41235
338.40343   789.25322   233.00000  22.67551             13.21830
340.03681   1102.67485  163.00000  20.33293             10.31407
342.57925   397.11816   347.00000  23.86375             18.66330
339.12264   1115.60377  212.00000  17.89982             15.16247
339.63571   518.38571   140.00000  13.77985             13.11097
341.90260   598.72078   154.00000  16.74541             12.18727
342.04082   1069.78061  196.00000  17.22773             14.51110
345.41071   149.08482   224.00000  20.36981             14.31431
348.05405   923.56306   222.00000  25.69222             11.24731
344.42248   1044.65116  258.00000  20.67965             15.91008
349.62212   543.25346   217.00000  21.93424             12.81994
347.47853   1596.41718  163.00000  17.34625             11.96710
349.50510   613.74490   196.00000  17.86201             14.03162
347.51389   554.94444   72.00000   11.48725             7.99941
350.86818   1132.39091  220.00000  18.55269             15.24772
354.23111   884.19556   225.00000  19.63083             14.69360
350.65060   961.53012   83.00000   12.61290             8.35695
351.00000   992.35000   100.00000  13.00382             9.92676
353.47423   1090.80928  194.00000  16.35909             15.23269
354.00606   1265.44242  165.00000  16.96570             12.43026
354.89916   736.50000   238.00000  18.26386             16.71762
360.39151   628.40094   212.00000  23.45018             12.16585
361.11837   768.48163   245.00000  24.35155             13.13156
358.28000   451.57714   175.00000  16.54382             13.53063
363.29150   422.09717   247.00000  21.55266             14.61561
359.89706   1224.51471  136.00000  15.41859             11.28143
363.56680   1192.82591  247.00000  19.59220             16.14591
368.05517   989.81379   145.00000  16.57420             11.44956
369.06349   1576.03968  126.00000  15.82456             10.24316
370.75862   335.75369   203.00000  17.46846             14.82191
374.21622   808.68726   259.00000  23.27054             14.28175
369.01754   1043.97368  114.00000  15.86960             9.24138
373.07362   1054.09816  163.00000  18.55510             11.40046
371.81364   474.87727   220.00000  17.63407             15.96664
373.42781   1231.34759  187.00000  17.89544             13.36385
373.79330   1133.62570  179.00000  19.42374             11.81018
376.63507   519.25592   211.00000  17.62916             15.33345
379.56614   1264.94709  189.00000  19.33717             12.46334
379.47423   1076.06186  194.00000  18.03353             14.02349
380.88596   458.78070   228.00000  20.36712             14.30714
382.50739   945.22167   203.00000  19.85954             13.01700
380.41818   975.65455   165.00000  15.09696             13.98544
384.01389   1123.77778  216.00000  19.53870             14.18533
386.55605   658.21076   223.00000  21.50945             13.29047
384.12217   752.09955   221.00000  21.70035             13.06893
382.46512   1039.06977  86.00000   11.11436             9.88311
386.56216   692.90811   185.00000  16.31584             14.45203
387.79191   503.61272   173.00000  16.31563             13.58433
388.11194   1107.82090  134.00000  14.06662             12.33301
393.17672   399.42241   232.00000  24.52172             12.20879
387.41322   621.41322   121.00000  12.87025             11.96137
391.69036   335.09645   197.00000  20.52633             12.30955
389.23596   478.70787   89.00000   11.22218             10.22817
397.31022   767.22263   274.00000  24.41198             14.60825
394.84431   638.25749   167.00000  20.33724             10.60063
392.07143   607.12245   98.00000   11.85243             10.51017
400.70896   320.54478   268.00000  26.50869             13.54563
400.22297   805.88514   296.00000  21.75953             17.59307
399.42021   979.40426   188.00000  18.85831             12.74415
402.63670   717.30712   267.00000  20.62540             16.84225
401.02513   1149.36683  199.00000  21.14633             12.02160
398.71264   545.35632   87.00000   13.09282             8.48706
409.21585   925.21858   366.00000  25.29463             19.10182
403.45064   1232.48498  233.00000  19.80738             15.05478
403.82581   1113.96774  155.00000  14.42917             13.78990
404.67143   385.29286   140.00000  14.88161             12.09526
410.23394   1252.78899  218.00000  21.92671             12.80116
412.99291   240.67021   282.00000  19.56943             18.34980
415.71148   464.87955   357.00000  27.53108             16.94561
415.65500   364.37000   200.00000  18.16154             14.24583
417.70056   685.51977   177.00000  19.45291             11.59421
420.37410   658.01799   278.00000  24.58377             14.49627
421.78502   975.42997   307.00000  24.14631             16.33188
423.81081   1085.95608  296.00000  24.35515             15.50959
420.91667   216.46111   180.00000  16.45853             14.01282
419.99160   179.63025   119.00000  14.14920             10.78895
422.01554   567.72021   193.00000  21.53553             11.56558
423.39726   25.10959    219.00000  18.56082             15.06009
423.77439   961.78659   164.00000  18.36493             11.47280
421.12258   1143.81290  155.00000  15.32432             12.88072
425.16981   311.79623   265.00000  21.98238             15.38231
425.41784   390.29577   213.00000  22.21967             12.53461
428.42029   423.12319   138.00000  15.91384             11.07678
430.83898   934.43220   236.00000  17.41290             17.35270
433.42213   1257.86066  244.00000  21.64508             14.44041
429.07879   1506.05455  165.00000  17.10566             12.30328
430.07895   49.92632    190.00000  17.58173             13.82604
434.63274   9.62832     226.00000  18.45262             15.64143
431.11429   1155.81429  70.00000   12.81207             7.24303
432.25000   552.86842   76.00000   11.77231             8.24167
434.62245   788.26020   196.00000  16.17844             15.69467
437.94366   859.93662   284.00000  24.06379             15.16396
436.02235   1169.43575  179.00000  18.00117             12.75012
433.97857   344.89286   140.00000  15.82552             11.26774
437.92935   497.71739   184.00000  21.37726             11.15126
438.91083   1069.05732  157.00000  21.11892             9.78116
441.22072   590.45946   222.00000  20.90698             14.69579
434.90476   729.23810   42.00000   7.55095              7.07965
435.49231   1112.84615  65.00000   10.63749             7.82911
440.10323   466.80645   155.00000  16.42370             12.13879
440.29518   964.37349   166.00000  17.57284             12.04623
439.84444   1123.66111  180.00000  16.76546             13.84939
439.32026   1486.48366  153.00000  15.74506             12.38555
443.42202   274.18807   218.00000  22.28836             12.60249
446.45868   746.02479   242.00000  20.54851             15.01412
443.66480   762.53073   179.00000  16.94699             13.56108
444.50781   1141.41406  128.00000  15.08747             11.02267
446.57399   88.47085    223.00000  17.72514             16.08765
447.63793   355.17241   232.00000  21.72892             13.65226
448.77528   1233.57865  178.00000  20.39618             11.17124
448.77586   145.89080   174.00000  16.40260             13.53860
448.70681   1426.18325  191.00000  16.75414             14.53876
448.81313   781.52525   198.00000  17.12661             14.73158
449.95690   1457.05603  232.00000  21.32945             14.02739
456.21538   547.57308   260.00000  25.24319             14.70688
455.41558   704.58442   231.00000  22.18506             13.61538
448.96250   1131.17500  80.00000   11.11353             9.15298
451.50000   1176.00000  130.00000  14.63141             11.29800
456.05485   475.82278   237.00000  23.12321             13.81458
458.25592   228.34123   211.00000  20.42446             13.32164
458.05952   1280.13095  252.00000  23.84866             13.62733
454.01515   569.09091   66.00000   11.15642             7.64387
462.35586   729.33333   222.00000  27.40210             10.67060
460.48731   1068.23350  197.00000  20.59966             12.24360
459.54301   1165.12366  186.00000  20.86892             11.55255
460.61677   118.92216   167.00000  17.58323             12.18029
457.50000   562.36000   50.00000   8.16823              7.74638
464.22414   666.39655   232.00000  18.77878             15.80167
466.11475   1384.37705  183.00000  17.27905             13.63611
466.21528   684.19444   144.00000  16.81205             10.90910
464.60000   1000.63636  110.00000  12.35717             11.46723
468.31481   492.46296   216.00000  18.02579             15.33274
468.18033   855.66667   183.00000  17.61089             13.29760
468.02198   139.19780   182.00000  16.79213             13.84790
471.27049   58.52049    244.00000  21.66094             14.56203
470.59524   305.64762   210.00000  18.35035             14.58732
471.67039   775.53073   179.00000  16.57479             13.93573
474.32381   340.77460   315.00000  23.40188             17.24100
475.18750   694.21591   176.00000  18.47075             12.45995
473.92095   1227.41502  253.00000  18.48310             17.89543
477.52590   265.52590   251.00000  29.69585             11.32847
474.37129   425.32673   202.00000  20.19497             12.93594
474.12121   1034.85859  198.00000  17.91408             14.19579
478.51613   547.02688   186.00000  17.23016             13.80075
477.03205   739.08333   156.00000  16.43565             12.27456
476.02632   1004.35088  114.00000  13.43532             10.92731
478.67391   1245.25000  184.00000  16.09005             14.62489
478.87440   1370.76329  207.00000  20.76312             13.46797
481.99034   645.40580   207.00000  18.57492             14.24181
481.49697   718.60000   165.00000  17.30133             12.20410
484.27152   534.72185   151.00000  19.47099             10.00263
482.28125   1028.04688  64.00000   10.63239             8.02506
489.41833   1091.97211  251.00000  24.93617             13.08311
483.12500   1149.18750  80.00000   11.75382             8.69685
485.11475   1213.08197  122.00000  12.89813             12.22234
489.31250   995.89453   256.00000  18.29289             17.98102
486.29747   1162.38608  158.00000  18.47805             10.91632
488.59060   734.55034   149.00000  15.82005             12.05902
492.52535   1132.91705  217.00000  19.15754             14.61020
491.91216   1032.97297  148.00000  17.14099             11.37078
495.77612   1255.89552  201.00000  24.22563             10.83585
495.06303   600.73950   238.00000  20.55571             15.04875
495.01007   1299.20134  298.00000  22.06220             17.48072
495.77064   772.12385   218.00000  18.03464             15.45560
501.21166   970.83742   326.00000  23.50846             18.81206
496.89764   1173.19685  127.00000  15.81905             10.29609
498.51701   59.47619    147.00000  15.03253             12.63710
498.82716   795.81481   162.00000  15.75587             13.10960
499.56742   206.05618   178.00000  16.64767             13.67978
501.99261   558.69212   406.00000  29.17110             18.13855
501.09497   1147.27933  179.00000  17.79106             12.98501
501.55026   1209.82540  189.00000  20.60390             11.80211
501.37162   698.55405   148.00000  15.81943             11.94707
504.28436   813.13270   211.00000  24.10034             11.32567
505.13043   222.16667   276.00000  22.87336             15.88108
507.59603   636.19536   302.00000  25.74369             15.29060
503.63636   1342.84492  187.00000  21.81334             11.19438
