# Filename: Nuclei_416_ctrl_60x_006.npz
# Voxel size (nm): (108, 108)
# Area quantity: voxels
# Num nuclei detected: 1517
Y           X           AREA       MAJOR_AXIS_LENGTH    MINOR_AXIS_LENGTH
12.38286    603.21143   175.00000  18.94119             11.81377
26.20312    591.59375   128.00000  17.03365             9.88959
42.72263    1153.43066  137.00000  14.89418             11.81648
49.33173    626.12019   208.00000  25.03380             11.05622
73.69576    781.02743   401.00000  27.26439             18.99777
73.85159    1266.16254  283.00000  20.69556             17.58673
72.60714    1704.29592  196.00000  19.47620             12.96427
73.28947    1482.76316  76.00000   11.11385             8.92848
78.65663    1155.63253  166.00000  17.35507             12.46132
77.55752    1438.80531  113.00000  13.82897             10.51561
78.93077    738.06923   130.00000  14.89989             11.16560
79.03922    980.89542   153.00000  15.45652             12.68037
84.10465    1497.56977  86.00000   11.65864             9.45539
91.43478    602.38647   207.00000  18.50953             15.00153
93.17376    1056.01773  282.00000  24.93998             16.72575
90.56173    464.97531   162.00000  16.01917             13.36873
90.92537    891.70149   67.00000   11.49974             7.42541
95.75460    1304.64417  163.00000  17.50051             12.00998
92.65574    1533.45902  61.00000   10.31436             7.51517
96.19048    912.88690   168.00000  17.49058             12.94895
96.25210    1462.07563  119.00000  15.80006             9.67397
101.30601   537.82514   183.00000  22.34481             10.62272
108.90196   525.51634   153.00000  19.33449             10.42401
108.74719   824.16292   178.00000  17.01219             13.88933
111.98276   948.22414   174.00000  16.85255             13.21307
113.44720   1165.54658  161.00000  14.55494             14.14038
116.14689   595.66102   177.00000  15.34679             14.73030
117.65728   1324.94836  213.00000  17.72301             15.35040
121.84974   702.61658   193.00000  17.41580             14.47554
133.17222   598.06111   180.00000  15.84281             14.84827
140.93694   1194.40090  222.00000  19.60175             14.43535
140.82581   847.96129   155.00000  18.08722             11.13354
143.14397   680.23346   257.00000  20.33605             16.15285
141.88211   1000.83740  246.00000  22.37529             14.12955
146.00386   882.55598   259.00000  22.08521             15.03536
160.18333   973.78667   300.00000  20.66742             18.57647
158.26882   861.07527   93.00000   13.32399             9.20838
164.88845   795.79681   251.00000  24.62354             13.21568
162.22034   929.18644   295.00000  22.21034             16.98369
161.64407   1039.75847  236.00000  18.21903             16.67500
163.52381   1677.81481  189.00000  16.67715             14.43770
170.84457   1193.86510  341.00000  28.47080             15.41592
172.57547   1008.15094  212.00000  18.92930             14.44114
170.51163   1658.39535  129.00000  15.03218             11.04305
173.52066   648.68182   242.00000  19.28796             16.16038
176.76724   1061.37500  232.00000  20.76279             14.34777
177.62896   756.04525   221.00000  18.97956             14.95098
180.77857   888.79643   280.00000  22.76608             15.75077
180.10471   635.00524   191.00000  16.91992             14.47551
183.03719   1257.68595  242.00000  20.76201             14.86245
183.45122   611.27236   246.00000  18.32178             17.13166
189.16609   1557.72318  289.00000  22.99412             16.05821
188.36957   1646.42029  138.00000  16.36782             10.77350
190.42199   685.91844   282.00000  21.21006             17.00898
189.42778   856.96667   180.00000  19.00534             12.23594
192.46753   1382.29221  154.00000  19.64086             10.26008
191.08021   582.33155   187.00000  17.23587             13.88471
197.46635   1616.48558  208.00000  20.66759             12.87448
193.87143   1671.94286  140.00000  15.93402             11.42261
196.44444   1635.48765  162.00000  15.50243             13.44832
198.66216   1056.65315  222.00000  18.29003             15.46031
194.47458   769.06780   59.00000   9.60136              7.80273
198.46364   329.78182   110.00000  13.92880             10.27824
202.88732   568.84507   213.00000  23.51582             11.96381
204.12760   907.27300   337.00000  23.47300             18.38507
207.97297   1081.11892  185.00000  22.38190             10.55445
206.83810   725.25238   210.00000  18.35102             14.71545
208.92486   883.93642   173.00000  16.93084             13.04110
212.02990   596.55482   301.00000  23.43600             17.03369
214.66807   1369.83193  238.00000  21.48689             14.40930
211.46341   1570.78049  123.00000  13.72155             11.69948
213.63592   1096.24757  206.00000  17.29098             15.23595
215.90798   970.30061   163.00000  16.33990             12.76462
219.61988   862.29240   171.00000  20.38708             12.41616
222.79909   1061.08676  219.00000  22.21531             12.77971
225.19841   801.62698   252.00000  22.47989             14.51399
225.50472   916.24528   212.00000  17.92151             15.11865
226.41453   1042.13248  234.00000  19.70758             15.20571
225.19753   986.04938   81.00000   12.07900             8.52606
229.05825   405.02913   103.00000  13.06443             10.97793
234.34630   1277.03113  257.00000  24.78578             13.23166
230.10286   1536.70286  175.00000  15.79240             14.10778
231.52838   1445.86900  229.00000  20.35664             14.44916
229.42593   1012.46296  54.00000   8.46867              8.12094
233.42069   1571.00690  145.00000  14.73940             12.53301
232.62821   884.75641   78.00000   11.80899             8.53061
241.46614   1215.98008  251.00000  19.07790             16.87949
242.62209   1046.11628  172.00000  16.00380             13.89932
242.17986   1242.32374  139.00000  15.14422             11.74541
242.98551   1027.00000  69.00000   10.03464             8.83659
249.10427   862.32227   211.00000  19.48011             13.98569
249.48990   487.88384   198.00000  19.93633             12.98102
253.17021   929.25532   188.00000  20.23327             12.04255
252.06633   459.18367   196.00000  19.78571             12.68766
253.07634   1037.29771  131.00000  14.03030             12.06052
257.47755   1194.83265  245.00000  19.39762             16.14155
257.65517   750.50000   232.00000  20.67184             14.60799
257.36296   849.64444   135.00000  14.33513             12.13395
259.07317   195.98374   123.00000  15.02047             11.52952
261.12658   1299.12025  158.00000  16.12871             12.56617
261.48585   953.28302   212.00000  17.85648             15.17984
266.04839   551.58065   248.00000  20.84865             15.19015
264.71730   1617.47257  237.00000  17.90965             16.96646
267.65289   1227.12397  242.00000  21.53163             14.49310
271.35338   817.13534   266.00000  23.27431             14.64621
273.03086   1333.13889  324.00000  24.54477             18.59101
275.16800   1395.88800  250.00000  26.28452             12.26603
267.78571   603.28571   42.00000   8.37500              6.45937
276.61671   633.19597   347.00000  25.42752             17.56661
275.34783   1065.20773  207.00000  22.03628             12.63874
275.17241   1020.94581  203.00000  16.83895             15.56002
280.08021   1000.75401  187.00000  17.34299             13.90302
279.45070   1093.11268  142.00000  15.36048             11.77893
290.69554   1281.95013  381.00000  33.77058             14.82244
282.32317   580.81707   164.00000  16.76570             12.56098
284.76442   527.89904   208.00000  18.96867             14.59400
284.36788   864.69430   193.00000  17.16102             14.35431
282.81203   936.28571   133.00000  15.64544             10.82860
283.83945   658.61009   218.00000  18.70562             14.89745
283.67153   1723.43796  137.00000  14.86404             11.74993
285.25620   946.84298   121.00000  14.71027             10.51789
286.48901   613.65934   182.00000  17.91619             13.74525
286.02963   1053.63704  135.00000  15.12073             11.47998
287.38750   1075.36875  160.00000  15.41934             13.24257
290.04902   1156.51961  204.00000  21.52377             12.30241
288.95580   155.20994   181.00000  15.45341             14.93161
289.28934   183.93909   197.00000  18.79761             13.37063
291.89627   827.19087   241.00000  22.13493             14.13082
291.44672   966.47131   244.00000  18.67598             16.70579
292.92632   705.40526   190.00000  18.43279             13.20294
292.16667   66.95833    96.00000   11.98248             10.26067
294.49020   1044.01307  153.00000  16.76314             11.99180
295.18621   996.68966   145.00000  14.48405             13.19480
298.17373   925.95763   236.00000  22.72032             13.70218
299.82958   1184.63987  311.00000  21.91717             18.32130
301.47771   1144.44586  314.00000  22.75202             17.95530
302.60923   785.34154   325.00000  22.06905             19.03442
300.04380   367.04380   137.00000  14.27038             12.32065
301.43779   882.38710   217.00000  18.83845             14.83733
302.70000   1069.12632  190.00000  15.97371             15.19792
305.08230   259.33333   243.00000  20.82272             14.99140
310.64527   569.41216   296.00000  24.87014             15.37772
310.82909   214.95636   275.00000  24.08265             14.71996
315.18613   1245.21533  274.00000  25.92663             13.53352
312.71084   1503.11647  249.00000  20.63057             15.40893
310.90090   829.08108   111.00000  13.06865             10.97303
315.20556   390.39444   180.00000  18.04938             12.71696
319.95374   893.16370   281.00000  22.85747             16.05878
315.70000   1020.94667  150.00000  14.90373             12.82783
315.69375   1531.75000  160.00000  15.55302             13.14165
320.16364   449.86364   220.00000  21.98073             12.86198
314.22917   1101.95833  48.00000   8.14829              7.51026
318.39726   1272.52740  146.00000  14.43843             12.90248
321.00446   1038.97321  224.00000  20.20050             14.24278
322.18644   698.20904   177.00000  15.94381             14.21059
321.67521   936.79060   234.00000  20.89382             14.56724
323.00000   1004.78882  161.00000  16.85393             12.21959
320.83562   1812.08904  146.00000  16.79882             11.45243
325.10959   1015.17808  73.00000   11.01379             8.45761
335.08247   754.40206   291.00000  25.35443             14.85637
329.90278   739.02315   216.00000  19.70044             14.51536
332.97674   1291.87984  258.00000  21.52152             15.33992
332.23431   904.51883   239.00000  20.40507             15.17775
331.73188   1110.59420  138.00000  16.28294             10.92570
334.00000   146.38521   257.00000  23.48957             14.14593
337.50708   200.86119   353.00000  28.84758             15.72051
332.29897   992.11340   97.00000   11.66424             10.87703
335.51131   1123.80543  221.00000  18.29053             15.51056
336.62593   1223.74815  270.00000  21.54727             15.97272
339.31111   807.29259   270.00000  25.79126             13.64673
336.47297   852.78378   148.00000  15.07810             13.16422
340.22695   1057.16312  141.00000  14.93511             12.08148
342.79769   735.67052   173.00000  19.91854             11.08370
339.93671   1009.29114  158.00000  17.22322             11.86704
345.76000   1519.01000  200.00000  19.73179             12.97280
340.50000   725.50000   50.00000   8.25591              7.67333
346.85572   182.66667   201.00000  20.90637             12.37140
349.30144   958.75598   418.00000  29.00870             18.46431
349.13433   1346.26368  201.00000  18.63969             13.85557
350.78431   1753.05392  204.00000  20.41360             12.75347
354.47368   704.03047   361.00000  24.71655             18.89003
353.26846   403.54362   149.00000  15.60653             12.28756
356.92000   601.35111   225.00000  21.15100             13.70873
352.62097   1547.55645  124.00000  13.06374             12.18759
353.83060   856.69399   183.00000  20.63526             12.04134
359.40351   1185.19298  285.00000  26.08923             13.95923
357.49219   825.71094   128.00000  13.78176             11.87856
359.13472   1132.47150  193.00000  17.54422             14.01630
361.03646   205.19792   192.00000  16.37229             14.97387
355.54545   726.18182   33.00000   7.02959              6.03715
360.27586   1063.02299  174.00000  17.48203             12.75420
360.09938   1211.56522  161.00000  17.04225             12.05964
361.54348   1282.00000  184.00000  17.95716             13.07958
364.50220   813.73568   227.00000  24.34282             11.93156
366.35519   735.76503   366.00000  29.24722             16.25796
366.28313   1024.01506  332.00000  21.74049             19.51563
366.42512   849.44928   207.00000  17.86842             15.05703
367.33887   1096.43189  301.00000  23.66253             16.37741
366.19178   1309.47945  146.00000  15.22043             12.22241
365.27473   1894.24176  91.00000   12.05596             9.67296
369.47120   277.23037   191.00000  18.35138             13.68984
369.30814   936.34884   172.00000  16.93193             13.18144
370.25424   1155.55367  177.00000  16.97567             13.31540
372.59055   667.46063   254.00000  20.49985             15.81219
370.49138   802.85345   116.00000  14.71916             10.05338
368.23077   1037.03846  52.00000   9.33564              7.18765
372.92073   1346.43902  164.00000  19.17781             10.94790
376.54264   1218.17054  258.00000  21.80414             15.14452
374.99310   37.68276    145.00000  15.85536             11.72633
377.23776   1043.61538  143.00000  14.39691             12.67243
380.08929   1359.24107  224.00000  21.35607             13.43782
379.36111   424.18519   108.00000  13.11609             10.56898
381.59615   996.74231   260.00000  18.66848             17.75908
378.32955   1279.17045  88.00000   12.30870             9.17124
386.00000   577.73160   231.00000  26.46740             11.50060
381.25758   1496.62879  132.00000  13.62971             12.35563
382.75956   1016.07650  183.00000  17.12905             13.78852
385.12000   962.37000   200.00000  19.74363             12.97722
385.97706   748.99083   218.00000  17.18906             16.31158
381.82759   825.18966   58.00000   9.57946              7.72881
384.59060   918.62416   149.00000  14.83385             12.91720
390.31699   630.21569   306.00000  23.81893             16.61185
389.52574   778.63971   272.00000  23.62910             15.09738
390.60000   1188.55472  265.00000  21.66362             15.72992
389.57921   266.27723   202.00000  17.72076             14.63250
391.05263   133.87895   190.00000  16.23497             14.99963
389.15232   317.65563   151.00000  15.64640             12.62897
391.44404   809.59928   277.00000  22.69993             15.96024
392.59551   1663.57303  178.00000  16.32363             13.94064
392.58140   1277.73023  215.00000  18.62623             15.06753
392.41667   1160.44444  144.00000  14.93917             12.37356
395.92444   1318.21778  225.00000  20.79486             13.80770
394.55000   932.32143   140.00000  15.33783             11.66560
397.60769   1052.93846  260.00000  21.39964             15.65277
394.48447   156.88199   161.00000  15.09842             13.60708
395.72105   909.13158   190.00000  17.60213             13.84618
398.76768   236.08586   198.00000  17.78459             14.24957
399.09735   1485.73451  226.00000  20.52738             14.03417
397.87662   208.81818   154.00000  14.36170             13.69170
400.89189   1629.20270  148.00000  17.31281             10.90328
401.65680   762.05325   169.00000  17.10492             12.67998
403.23077   178.27885   208.00000  19.34807             13.84594
404.62577   1527.57669  163.00000  18.57765             11.27007
404.62030   507.03759   266.00000  21.22286             15.97405
410.17434   995.90132   304.00000  21.42511             18.52897
407.96512   219.66279   172.00000  16.38937             13.48439
410.53017   899.48276   232.00000  20.13115             14.94681
414.07018   1344.67105  228.00000  24.41812             11.99626
412.64674   400.51087   184.00000  17.03101             13.86388
417.39203   883.63787   301.00000  24.95545             15.51306
414.45098   914.29902   204.00000  17.66147             14.89886
414.50556   283.63889   180.00000  18.64555             12.39134
417.17316   1239.01732  231.00000  18.68944             15.98279
418.05650   1575.62712  177.00000  15.28127             14.75844
417.14783   556.18261   115.00000  14.42480             10.18857
422.62637   746.36996   273.00000  21.78355             16.16214
420.21583   927.69065   139.00000  17.33933             10.23075
421.65550   20.52153    209.00000  18.09377             14.95355
420.78710   1592.92903  155.00000  17.71817             11.20811
422.82320   299.95580   181.00000  17.18459             13.48555
424.11399   569.05699   193.00000  20.61013             12.14075
426.66667   1509.05128  234.00000  24.22143             12.64702
426.08140   381.51550   258.00000  19.11767             17.33621
429.91496   1022.23754  341.00000  22.27519             20.05899
430.70423   327.93310   284.00000  23.82536             15.47217
431.61938   518.98616   289.00000  19.90817             18.57375
431.20796   211.38496   226.00000  17.58976             16.66848
429.40541   417.39189   148.00000  15.11044             12.56738
434.23077   1252.09615  260.00000  20.01575             16.69732
437.01581   281.52174   253.00000  18.86681             17.21935
441.76207   850.53103   290.00000  27.64290             13.53198
435.86154   946.78462   130.00000  15.96710             10.73325
439.02985   955.94527   201.00000  21.34247             12.37550
438.20270   1083.82432  148.00000  15.13271             12.55092
438.80556   1179.58889  180.00000  16.62099             13.80459
441.13679   1196.52358  212.00000  22.23212             12.28245
450.15405   975.53243   370.00000  33.00021             16.86947
440.79348   1070.37500  184.00000  15.84813             14.88185
447.77419   714.93907   279.00000  27.13182             13.37279
442.77099   1627.98473  131.00000  15.70827             10.67399
446.37402   1540.21654  254.00000  20.18650             16.25308
447.13825   800.57143   217.00000  20.21521             14.26185
445.45000   1851.95000  100.00000  12.65770             10.30837
447.21717   151.37374   198.00000  18.96297             13.38785
453.29167   889.60417   240.00000  24.70270             12.70074
447.24545   1666.49091  110.00000  13.38446             10.59846
446.75000   486.43333   60.00000   9.53562              8.08296
452.34553   1053.33333  246.00000  20.13319             15.77920
449.77841   1277.13636  176.00000  16.53872             13.78492
453.65476   1177.21429  168.00000  16.93407             12.63122
459.10891   928.09406   202.00000  22.54708             11.56517
459.24427   873.60687   262.00000  21.21488             15.85229
459.31724   1230.90345  290.00000  21.37488             17.44361
459.41830   291.71895   153.00000  15.92905             12.39780
460.84071   810.53540   226.00000  19.03027             15.26891
462.44134   1396.80447  179.00000  20.45232             11.97609
462.80972   441.94332   247.00000  22.07246             14.49660
461.69685   614.68110   254.00000  19.29424             17.16814
468.01437   1137.50862  348.00000  32.57991             14.11506
462.58673   1365.07143  196.00000  21.34879             11.88150
464.99103   574.96413   223.00000  24.27951             11.80291
463.44253   740.27586   174.00000  17.25439             12.92256
466.66942   1253.54545  242.00000  23.27772             13.38073
465.77869   1102.54098  122.00000  12.97441             11.99871
466.36723   1272.97175  177.00000  15.51724             14.84018
