# Filename: Nuclei_416_bidi_60x_018.npz
# Voxel size (nm): (108, 108)
# Area quantity: voxels
# Num nuclei detected: 1004
Y           X           AREA       MAJOR_AXIS_LENGTH    MINOR_AXIS_LENGTH
11.82353    417.23529   153.00000  16.65804             11.75909
20.95722    1175.97326  187.00000  19.47604             12.33149
22.44853    611.62500   136.00000  14.90370             11.67951
35.58940    254.06623   151.00000  19.05284             10.66760
46.59514    612.74899   247.00000  22.14955             14.25794
68.10734    461.89266   177.00000  17.59132             12.87077
70.23246    1150.65351  228.00000  20.59681             14.16456
85.18841    646.46860   207.00000  19.63541             13.48079
96.43273    502.01091   275.00000  20.11520             17.57691
106.63314   1111.09467  169.00000  17.73356             12.23848
112.09967   526.83056   301.00000  25.52383             15.12854
112.25150   952.26347   167.00000  21.07622             10.16950
109.38298   1661.90426  94.00000   13.40857             9.46291
116.65487   545.41593   113.00000  12.64951             11.71291
120.04094   257.12865   171.00000  19.23046             11.74995
121.37864   1123.55340  103.00000  12.02513             11.01316
125.89030   206.38397   237.00000  22.93223             13.25251
132.31222   958.86425   221.00000  23.28886             12.13464
136.31532   1172.66216  222.00000  20.34773             14.17248
136.21854   1237.58940  151.00000  17.26159             11.28703
138.69767   1108.48256  172.00000  17.78712             12.50162
140.80753   570.92469   239.00000  19.08953             16.14664
143.56017   1640.58506  241.00000  19.84859             15.60884
149.15924   540.28662   314.00000  22.49745             17.98136
149.71875   1091.09821  224.00000  18.20865             15.71022
155.00585   472.78947   171.00000  18.03822             12.20466
159.12414   461.02069   145.00000  15.31347             12.23010
160.34361   1195.13216  227.00000  19.18520             15.10542
165.76074   582.82515   326.00000  27.93005             14.92737
171.32816   1133.02882  451.00000  37.32575             16.46864
183.58687   932.02317   259.00000  23.27142             14.23502
192.11656   482.68712   163.00000  15.20505             13.68011
201.48996   1157.62651  249.00000  25.70482             12.64341
204.74866   1053.95722  187.00000  17.81454             13.37162
205.81818   943.12987   154.00000  14.90227             13.21477
209.98936   1595.97872  188.00000  20.60815             11.63165
213.25610   519.74390   164.00000  17.19407             12.24234
225.29470   982.22185   302.00000  22.86358             17.05795
220.84247   941.76712   146.00000  16.00684             11.64526
230.75000   567.99074   216.00000  17.63066             15.85616
231.10000   1047.42353  170.00000  18.07142             12.05061
232.03261   441.92391   92.00000   13.49475             9.00480
230.83846   597.49231   130.00000  14.38873             12.38329
234.97510   204.51452   241.00000  22.43931             13.70644
238.73196   939.67354   291.00000  21.40840             17.58067
238.42857   540.65966   238.00000  21.08370             14.49532
244.72951   487.41393   244.00000  24.65776             13.09051
242.50581   589.79651   172.00000  16.70921             13.15912
244.93238   1012.44840  281.00000  24.83663             14.96977
251.92933   612.02120   283.00000  20.92447             17.26170
256.75490   990.00980   204.00000  17.99324             14.51930
260.15405   1150.56397  383.00000  26.89062             18.28439
265.27941   1057.14118  340.00000  23.27699             18.64598
282.91176   616.75000   340.00000  24.41330             17.87526
279.54950   1195.13366  202.00000  18.66861             13.85460
284.92308   113.11538   234.00000  22.39686             13.49724
280.55618   1014.76404  178.00000  15.95858             14.23638
287.27322   482.72678   183.00000  17.52681             13.37219
294.79221   968.43506   154.00000  15.40352             12.73707
301.37248   472.63423   298.00000  24.99162             15.48840
319.99184   460.21633   245.00000  22.98615             13.76410
321.01786   602.38571   280.00000  22.45621             16.02557
330.52778   1196.97619  252.00000  21.47119             15.02532
332.91057   256.60569   246.00000  19.94488             15.76378
338.08876   390.84024   169.00000  16.78242             12.86960
344.85567   412.37457   291.00000  24.70371             15.87712
344.06996   456.52675   243.00000  19.86330             15.70541
354.79263   245.16129   217.00000  19.44194             14.35443
361.35535   850.02516   318.00000  26.46563             15.43924
362.03670   380.31804   327.00000  22.05507             20.69041
368.73962   1189.01509  265.00000  27.40374             13.27131
365.54231   324.95769   260.00000  19.56732             17.25335
375.39024   298.73171   205.00000  18.31832             14.28806
377.87698   344.37302   252.00000  22.42336             14.47694
376.86705   1613.81503  173.00000  20.26804             11.36395
383.36788   394.19689   193.00000  16.43103             14.98540
386.82334   282.81073   317.00000  21.18990             19.39749
394.85019   370.41199   267.00000  21.33364             15.99963
393.33511   166.13830   188.00000  18.91216             12.72850
396.16107   354.79195   149.00000  15.28013             12.51418
406.54506   282.53648   233.00000  18.32977             16.31661
419.40000   265.89744   195.00000  15.92302             15.70157
419.20472   156.48031   127.00000  13.06272             12.55898
430.89041   312.50228   219.00000  20.67583             13.60325
430.07895   173.02632   152.00000  15.45231             12.56811
435.07090   862.57836   268.00000  24.73676             13.86408
436.67797   1198.76695  236.00000  19.46034             15.63094
437.68889   159.44444   180.00000  18.78095             12.54636
440.05376   275.20430   93.00000   12.35438             9.75116
446.29048   359.87143   210.00000  19.69695             13.78116
443.87578   52.85714    161.00000  15.03473             13.85882
449.25148   482.05917   338.00000  24.81355             17.60247
448.11735   241.89796   196.00000  17.18324             14.65601
447.59603   426.27152   151.00000  14.17245             13.56514
454.82063   1190.67713  223.00000  23.59471             12.15867
454.64167   263.04583   240.00000  20.95298             14.83750
453.91322   322.89669   242.00000  19.37993             16.10897
458.13693   129.15768   241.00000  21.38871             14.37782
458.25197   146.11024   127.00000  16.55273             9.80808
465.10490   408.39161   286.00000  27.36849             13.60790
463.01070   225.05348   187.00000  18.26221             13.11916
464.53556   1597.83264  239.00000  22.02279             13.99107
468.58974   329.03846   78.00000   11.92025             10.43717
471.71134   272.29381   194.00000  18.75640             13.37941
472.16230   312.11518   191.00000  20.54844             11.92987
474.28311   209.87671   219.00000  19.46531             14.38911
474.12838   386.89189   148.00000  15.10501             12.77811
478.00673   1498.37710  297.00000  22.85948             17.22548
476.46012   246.71779   163.00000  16.55775             12.65110
477.85356   1437.11297  239.00000  19.35021             15.80375
480.75281   172.19663   178.00000  16.44378             13.80788
483.32508   449.58204   323.00000  29.37741             14.68426
484.67518   227.71168   274.00000  21.16596             16.57428
480.57042   303.45775   142.00000  16.29993             11.16364
486.00334   152.73913   299.00000  22.10119             17.32707
485.72043   838.60215   93.00000   12.55893             9.49679
492.33893   1204.48658  298.00000  23.96339             16.19001
490.07471   406.49425   174.00000  15.75368             14.10171
491.24294   384.38418   177.00000  17.83550             12.73953
493.48718   201.38034   234.00000  20.26716             14.88022
493.81250   278.42308   208.00000  16.81745             15.89318
503.28530   415.00000   347.00000  26.53264             17.32972
502.76577   363.49099   222.00000  19.36321             14.82412
502.04878   1581.61585  164.00000  15.78691             13.27326
504.24571   176.09143   175.00000  17.88938             12.56441
503.27320   457.82990   194.00000  17.76130             13.99531
505.51271   486.99153   236.00000  24.86153             12.45475
505.40212   1503.40212  189.00000  16.69581             14.41381
504.50000   263.15625   96.00000   13.66920             9.06985
509.97348   548.51136   264.00000  24.34603             13.96261
521.12264   854.90881   318.00000  36.83191             11.19828
513.54962   1602.40840  262.00000  22.53223             14.99220
515.35802   242.22222   162.00000  15.78276             13.10600
518.49632   373.69485   272.00000  22.83130             15.29727
520.46445   1327.68246  211.00000  17.60003             15.60467
517.52113   278.09859   71.00000   10.44699             8.77540
521.30282   334.61268   142.00000  13.97935             13.04080
522.92857   1534.66964  224.00000  19.70534             14.60481
522.56140   9.74269     171.00000  17.68660             12.56586
522.72018   1433.61927  218.00000  16.98847             16.44127
524.27706   311.09091   231.00000  20.52537             14.38367
526.86447   394.71795   273.00000  20.66486             17.32086
526.89130   250.66667   138.00000  14.51987             12.18055
529.86982   30.64497    169.00000  17.42551             12.50816
531.98165   1628.51376  218.00000  17.51522             15.91369
531.16216   1485.64324  185.00000  21.31075             11.41455
533.27778   1589.01235  162.00000  15.92360             13.06081
534.43062   225.10526   209.00000  18.17044             14.76618
535.09877   160.93827   162.00000  15.44954             13.37432
537.69196   1221.26339  224.00000  17.34419             16.86440
540.51145   1378.44275  262.00000  23.41022             14.48975
540.62500   502.81944   360.00000  22.75439             20.41785
540.00000   563.62698   252.00000  20.49001             15.70451
539.80392   338.65686   102.00000  13.54722             9.62907
542.46637   597.23318   223.00000  18.20885             15.74283
547.03460   842.84775   289.00000  27.13646             13.81230
546.26415   179.90566   159.00000  15.97915             12.69325
547.08982   243.80838   167.00000  16.80052             12.78269
550.57550   196.78632   351.00000  25.09440             18.23937
552.45758   444.33030   330.00000  28.53684             15.18357
550.92409   1440.22442  303.00000  21.02440             18.53676
548.71915   1479.04255  235.00000  20.07884             14.99306
550.32461   1577.10471  191.00000  21.65874             11.25389
553.78210   1409.40078  257.00000  20.51858             16.09121
554.82500   369.81000   200.00000  20.15217             12.65948
552.80769   119.50962   104.00000  12.36289             10.74657
554.96316   1358.52632  190.00000  19.27925             12.70325
559.50655   1371.96507  229.00000  20.85244             14.75871
562.57483   142.98639   294.00000  32.95078             11.55423
558.65833   80.17500    120.00000  14.24885             10.87869
560.56349   1512.40476  126.00000  13.35835             12.07433
561.22283   400.13587   184.00000  18.41244             12.74076
567.18895   544.49709   344.00000  23.79185             18.65799
568.11333   354.98333   300.00000  24.12182             16.05847
563.82703   320.31892   185.00000  17.36430             13.59280
565.86932   1596.75568  176.00000  16.64435             13.62187
564.41667   1685.22222  72.00000   11.19516             8.56287
565.65698   1813.58721  172.00000  16.23580             13.55348
568.47748   294.38739   111.00000  14.03922             10.10686
571.84892   182.94604   278.00000  19.33686             18.31945
570.96992   416.21053   133.00000  14.36587             11.81545
574.86413   99.89130    184.00000  18.41687             12.74105
579.18824   271.13725   255.00000  20.62035             16.00108
583.10766   1242.96172  418.00000  30.91109             17.40837
579.53659   759.71707   205.00000  18.78327             14.05820
580.92049   1390.88685  327.00000  22.56071             18.54704
580.36923   628.89231   195.00000  17.73749             14.02047
584.32061   1512.04198  262.00000  23.72518             14.19253
581.12291   324.73184   179.00000  16.82103             13.66464
581.08252   480.00485   206.00000  17.56120             15.01843
580.67059   222.80000   85.00000   11.45671             9.63403
584.65116   1444.91860  258.00000  24.36858             13.61810
582.74595   1536.62703  185.00000  22.23970             11.07209
584.26804   245.10825   194.00000  21.79469             11.59208
584.68908   114.85714   119.00000  13.59491             11.19097
584.04065   291.21138   123.00000  14.72885             10.66005
590.77178   1484.15353  241.00000  21.55724             14.37379
591.06061   207.05628   231.00000  23.39422             12.72534
594.38565   329.78475   223.00000  18.38579             15.49219
594.35979   431.56614   189.00000  18.37005             13.23048
591.12360   1541.94382  89.00000   12.19971             9.29396
592.50649   1655.81169  154.00000  15.57282             12.61559
594.88971   134.85294   136.00000  14.74068             11.77964
597.50000   857.13830   188.00000  18.27526             13.08915
603.91336   381.29964   277.00000  28.11253             12.66219
604.07774   639.29329   283.00000  28.35609             12.99524
602.92917   776.83750   240.00000  28.05047             11.08158
601.78788   1500.67532  231.00000  23.58684             12.58079
605.62937   353.11888   286.00000  25.02305             14.64964
602.02888   490.06498   277.00000  21.43824             16.56721
599.98611   252.80556   72.00000   11.43769             8.04944
603.74419   239.06395   172.00000  16.35921             13.48930
609.20949   168.92095   253.00000  27.07250             12.21939
605.29091   310.15152   165.00000  15.29420             13.76170
609.35321   1746.16514  218.00000  18.80273             14.76628
617.28794   1417.66148  257.00000  25.65472             13.14740
618.37349   1587.30522  249.00000  25.87208             12.39791
614.42714   153.81910   199.00000  19.35395             13.14595
611.65693   196.80292   137.00000  14.92038             12.12292
618.90203   449.89865   296.00000  25.52887             14.93090
613.35766   1614.59124  137.00000  14.53210             12.01624
619.75926   421.59259   216.00000  25.71822             11.08340
617.09231   1704.29231  195.00000  18.86443             13.18134
614.34091   3.93182     88.00000   12.01528             9.49014
616.32727   1543.62424  165.00000  15.99841             13.14370
620.03883   266.15534   206.00000  19.93263             13.27047
621.36041   79.26396    197.00000  16.37194             15.35089
620.95276   432.40945   127.00000  15.38234             10.69716
626.08846   478.05000   260.00000  19.80823             16.76877
623.14013   104.55414   157.00000  15.55100             13.34964
626.59583   1671.57917  240.00000  21.03228             14.80753
629.99479   215.54167   192.00000  18.82842             13.05931
632.30859   1619.33594  256.00000  18.63498             17.52057
635.98377   802.12013   308.00000  24.45896             16.17973
634.36872   1547.55866  179.00000  16.83077             13.57178
639.53746   28.85342    307.00000  24.55593             16.15041
638.35025   413.92893   197.00000  16.51095             15.50847
646.14196   685.28707   317.00000  35.60002             11.43771
639.14170   270.75709   247.00000  21.42395             14.87955
642.05310   385.13274   113.00000  13.61840             10.70190
644.27586   1412.97126  174.00000  18.80711             11.82651
644.56098   1503.98537  205.00000  20.46755             12.82687
646.00000   133.19394   165.00000  16.73510             12.64006
651.45732   370.11585   328.00000  28.35556             15.60211
646.36154   1702.90769  130.00000  14.97722             11.17317
648.20330   475.66484   182.00000  17.75222             13.11086
649.14146   1657.53171  205.00000  17.17539             15.37392
650.55833   81.32083    240.00000  17.57311             17.44184
652.59487   1449.70769  195.00000  20.09566             12.42525
651.77273   440.44805   154.00000  14.74026             13.41392
652.39918   1396.99588  243.00000  19.28298             16.19238
651.70861   1868.20530  151.00000  14.44044             13.53082
654.10502   1564.20091  219.00000  18.05957             15.48861
653.08276   1641.96552  145.00000  14.60075             12.70079
653.05102   425.95918   98.00000   13.07504             9.67616
657.67636   802.66909   275.00000  20.44349             17.17131
662.93968   1226.29206  315.00000  30.88776             13.35627
658.36214   385.12757   243.00000  22.72706             13.81963
657.48205   589.39487   195.00000  17.35511             14.36351
660.28814   149.80932   236.00000  19.55944             15.43471
661.47847   1439.58852  209.00000  17.78533             14.94836
660.24627   1627.28358  134.00000  18.52746             9.36960
663.07759   1524.33190  232.00000  19.24749             15.37641
662.96855   50.80503    159.00000  16.93827             11.93980
662.17822   1492.55446  101.00000  12.80430             10.12248
664.94805   459.72078   154.00000  15.44186             12.72888
671.19081   38.69965    283.00000  28.51724             12.83350
667.92126   847.83465   127.00000  14.69511             11.05842
671.08805   184.88050   159.00000  16.51974             12.39815
678.30508   446.04802   354.00000  22.80893             20.26353
678.76744   1543.94574  258.00000  21.12705             16.22297
677.65909   517.82273   220.00000  17.92600             15.69035
678.61111   1389.51852  162.00000  15.80201             13.22436
676.95200   1495.14400  125.00000  18.23787             8.79656
676.69173   1665.00000  133.00000  15.20035             11.24840
683.66667   501.37619   210.00000  23.00181             12.04350
687.92857   853.78827   392.00000  31.42658             16.11754
682.79779   334.76838   272.00000  24.04486             14.74019
683.64550   367.17989   189.00000  16.15003             15.01789
682.72072   251.18018   222.00000  25.77076             11.02543
683.88596   1677.44737  114.00000  12.37439             11.76783
692.53605   697.51724   319.00000  25.45320             17.57481
694.31271   1692.14433  291.00000  25.71861             14.54636
694.34884   1393.44961  129.00000  16.49755             9.95408
692.50000   1482.95833  120.00000  15.35431             10.11027
695.20397   319.56657   353.00000  25.27104             17.83313
697.19512   1369.96098  205.00000  20.20339             12.99641
695.64881   1667.51786  168.00000  16.17367             13.30791
698.38034   1615.02991  234.00000  18.29250             16.44298
699.50890   382.16726   281.00000  23.66175             15.63736
703.34835   1254.51652  333.00000  33.16003             13.49734
699.49378   1596.51037  241.00000  21.25787             14.49284
696.84314   413.83007   153.00000  20.76253             9.57989
699.94332   1418.13360  247.00000  18.26400             17.28869
699.76000   81.30857    175.00000  17.45466             12.81065
703.71290   805.59032   310.00000  22.01405             18.39346
701.70936   252.29557   203.00000  19.12704             13.64570
707.82624   360.73050   282.00000  26.91711             13.47474
705.53788   1460.74242  132.00000  16.74045             10.15069
708.90775   1575.35424  271.00000  22.66425             15.32609
712.44444   187.44444   135.00000  13.52166             12.79812
714.65625   240.31771   192.00000  16.14939             15.25150
710.66667   836.63889   72.00000   11.12232             8.24532
716.96053   1395.84211  228.00000  18.09436             16.47843
