# Filename: Nuclei_416_bidi_60x_005.npz
# Voxel size (nm): (108, 108)
# Area quantity: voxels
# Num nuclei detected: 944
Y           X           AREA       MAJOR_AXIS_LENGTH    MINOR_AXIS_LENGTH
12.15306    875.46939   98.00000   13.22821             9.50468
107.89252   1430.42056  214.00000  21.60490             12.69515
112.02548   1759.81529  157.00000  15.17323             13.27202
139.01504   1822.94737  133.00000  17.04403             10.00348
152.04918   1829.22951  122.00000  15.10244             10.29493
166.23529   1824.73529  68.00000   11.66095             7.47647
191.45965   829.03509   285.00000  22.27980             16.64743
188.65753   1449.08904  146.00000  15.28287             12.28621
231.46988   799.24096   249.00000  19.40732             16.38894
241.05051   785.03030   198.00000  17.38617             14.56886
246.69302   1866.73953  215.00000  19.44285             14.11568
250.61404   1580.77193  114.00000  12.32086             11.86762
262.69963   1231.55311  273.00000  25.15771             14.05757
260.71123   618.64171   187.00000  15.97815             15.02246
262.42342   751.00901   111.00000  12.86685             10.97448
266.44444   1721.28889  135.00000  14.73159             11.69469
270.79221   1583.04545  154.00000  15.93464             12.32513
281.55497   745.87958   191.00000  16.98104             14.42267
286.48162   562.48162   272.00000  20.87782             16.69414
299.03285   728.00000   274.00000  18.86154             18.64983
300.02500   703.68125   160.00000  15.40976             13.27417
303.64120   660.82724   301.00000  21.08988             18.59201
308.98795   530.55020   249.00000  19.16233             16.59170
309.21739   629.42391   276.00000  19.93999             17.71874
312.75771   717.71366   227.00000  19.19425             15.23528
311.67532   608.92857   154.00000  15.75208             13.04438
316.35789   871.63860   285.00000  20.34633             17.91266
315.78713   1538.77723  202.00000  17.96263             14.55149
316.75785   767.52466   223.00000  20.32140             14.18120
321.51190   807.63095   336.00000  22.79770             19.07597
319.19328   287.93277   119.00000  13.01881             11.68459
323.14047   914.88294   299.00000  24.26727             15.75723
328.63743   1251.77193  171.00000  19.39342             11.40435
330.49498   851.48495   299.00000  19.62944             19.42154
334.92481   681.76692   133.00000  14.71427             11.55197
339.38983   556.92797   236.00000  18.45226             16.38052
343.08814   718.28475   295.00000  21.73517             17.43340
343.16580   672.06736   193.00000  16.90280             14.58655
345.92883   1005.50890  281.00000  19.93651             18.32306
349.49187   542.00407   246.00000  19.73095             15.92428
347.47674   1578.91279  172.00000  17.77984             12.44253
346.44444   800.18519   54.00000   9.93316              6.98099
351.01739   895.03913   230.00000  19.22494             15.30127
351.39286   1550.04464  224.00000  18.94942             15.06618
351.97647   649.53725   255.00000  23.88643             13.81089
351.97992   966.83936   249.00000  25.45563             12.73555
354.91538   826.77692   260.00000  20.88409             15.93031
355.70455   849.21970   132.00000  15.93320             10.87507
358.21603   878.06272   287.00000  21.82441             16.89444
358.03600   1048.03200  250.00000  22.02043             14.73797
362.70423   700.49296   71.00000   10.73115             8.43231
370.65990   537.79695   197.00000  19.02310             13.24648
368.35088   781.17544   57.00000   9.63023              7.58275
373.30493   1562.64574  223.00000  19.63646             14.52411
373.02206   968.19118   136.00000  15.54180             11.27625
374.71176   703.21765   170.00000  17.31358             12.53277
375.50877   1049.98684  228.00000  19.62244             14.86104
379.05056   1005.76966  178.00000  17.21583             13.20817
382.62288   589.60169   236.00000  19.46263             15.62003
379.22535   693.53521   71.00000   10.60096             9.04908
382.73077   1255.25000  208.00000  17.78553             14.96070
383.71186   643.26695   236.00000  18.69871             16.15470
384.67273   678.92727   165.00000  15.94290             13.19785
386.01485   1083.90099  202.00000  18.09403             14.26102
387.16279   659.80000   215.00000  18.91370             14.51923
392.82595   526.63291   316.00000  23.45405             17.27003
393.95390   1109.10993  282.00000  20.60153             17.56776
393.34831   747.25281   178.00000  16.01695             14.58333
395.31818   757.99091   110.00000  14.77293             9.51522
396.02679   1844.05357  112.00000  12.24241             11.76837
397.86010   544.95855   193.00000  16.82511             14.66499
398.38119   894.50000   202.00000  16.73947             15.45225
399.85792   568.28415   183.00000  16.86082             13.91935
397.67368   1632.13684  95.00000   12.48845             9.88425
402.22857   1012.27857  280.00000  20.50983             18.73150
398.77551   859.85714   49.00000   8.36103              7.63325
404.36271   1251.60339  295.00000  19.87781             19.01097
401.83036   668.65179   112.00000  13.76891             11.22571
404.17949   692.32051   156.00000  14.69305             13.61019
409.07299   599.12044   274.00000  24.18671             14.55018
409.64372   584.36437   247.00000  23.38046             13.52762
408.83951   851.52469   162.00000  18.47373             11.43002
413.44156   978.67965   231.00000  19.94625             15.11229
414.59887   755.80791   177.00000  16.02490             14.15066
418.08589   532.02454   163.00000  16.67858             12.48820
420.80653   706.94724   398.00000  25.14757             20.53068
423.45404   953.76323   359.00000  28.23492             16.71715
426.22756   844.44551   312.00000  22.71298             17.78542
419.72840   1814.88889  81.00000   10.72798             9.83201
423.40113   742.44633   177.00000  16.47628             13.76854
428.36759   494.75494   253.00000  23.75394             13.86878
425.36111   1494.46667  180.00000  16.48125             13.99833
422.56923   548.12308   65.00000   11.57709             7.39997
425.88835   1636.42233  206.00000  17.65930             15.04327
431.09836   972.41393   244.00000  20.19339             15.56855
430.98883   527.36313   179.00000  15.62245             14.65566
435.02848   636.13924   316.00000  24.52080             16.58051
430.30000   592.68750   80.00000   10.79999             9.55813
432.05172   1653.01724  58.00000   9.33229              7.96753
437.30769   537.63077   65.00000   11.28166             7.35770
443.16045   558.39552   268.00000  19.85236             17.29590
447.63675   682.71368   234.00000  25.45570             11.86548
442.21277   666.64894   94.00000   12.49683             9.58418
446.67073   928.11789   246.00000  20.37131             15.51172
448.71984   646.15953   257.00000  22.64338             14.52904
447.54091   1038.94091  220.00000  19.63578             14.28886
446.16216   1171.83243  185.00000  18.08781             13.13892
448.76884   900.67337   199.00000  19.82255             12.83846
450.01282   1184.79487  234.00000  23.28024             12.96626
446.77928   1222.46847  222.00000  17.45175             16.28053
451.64875   707.02509   279.00000  22.55952             15.88110
456.12027   989.18213   291.00000  22.19037             17.45039
457.19328   1022.40336  238.00000  24.88109             12.36352
451.36905   1698.73810  84.00000   10.80124             9.92637
453.87273   743.76970   165.00000  15.35469             13.80112
452.79389   756.18321   131.00000  14.83882             11.33651
462.78814   828.43220   236.00000  21.51055             14.40443
461.46053   1037.24342  152.00000  15.58644             12.66514
467.61667   495.35417   240.00000  25.29663             12.41192
468.17925   510.79245   106.00000  12.58094             10.76979
474.17910   584.85075   268.00000  22.17754             15.44380
476.25424   626.77966   295.00000  27.28422             14.08007
469.61472   1515.93939  231.00000  23.56118             12.58099
473.71569   1591.60294  204.00000  18.40000             14.16349
473.68108   767.71892   185.00000  16.96367             14.08015
475.30603   703.15948   232.00000  19.40404             15.33731
475.06356   942.97458   236.00000  19.35236             15.57881
478.77344   901.91016   256.00000  20.28958             16.48318
477.75969   861.79070   129.00000  13.78181             11.95092
475.69811   726.77358   53.00000   8.76463              7.69201
480.62343   960.17573   239.00000  19.06975             15.98038
481.50754   976.77889   199.00000  16.77002             15.22803
485.27972   1025.48601  286.00000  24.15589             15.22764
484.95146   669.22330   309.00000  24.09622             16.61674
482.39130   716.04348   23.00000   6.19388              4.66523
490.69780   838.97802   182.00000  21.04670             11.98380
491.69547   1042.68724  243.00000  19.62386             16.31995
491.97452   1658.69427  157.00000  15.02942             13.34975
498.92604   494.00592   338.00000  26.44532             16.86882
493.31795   923.45128   195.00000  16.60319             15.03472
492.54918   1717.13934  122.00000  13.05715             11.93895
496.48018   573.20705   227.00000  18.54585             15.68446
495.48696   948.20870   230.00000  19.93619             14.76559
496.98500   704.66500   200.00000  18.80192             13.78871
498.20741   731.77037   270.00000  19.94794             17.59671
494.80916   824.54198   131.00000  16.35324             10.40949
500.43191   630.41634   257.00000  19.25288             17.08312
502.39706   884.28309   272.00000  24.28754             14.42279
504.78088   672.31474   251.00000  19.85873             16.24595
510.85849   852.54403   318.00000  24.25900             16.75739
507.64126   1078.14350  223.00000  19.35762             15.01470
511.86765   1057.24020  204.00000  19.69483             13.21053
512.21229   757.58659   179.00000  17.68733             13.07110
510.73759   1706.66667  141.00000  14.93717             12.08193
518.34354   548.15306   294.00000  25.24009             15.08687
516.29947   799.56952   374.00000  26.31465             18.86387
516.37872   1539.40851  235.00000  20.24786             14.83540
517.03333   655.63333   180.00000  18.63434             12.31860
517.60510   1593.23567  157.00000  15.09896             13.29625
524.06569   521.29197   274.00000  23.84576             14.88023
529.60667   1609.45000  300.00000  31.75050             12.57738
526.21918   1578.09132  219.00000  20.15726             13.89909
526.88980   1117.44082  245.00000  18.97557             16.54344
527.63265   1140.16327  245.00000  21.21406             14.74956
530.81533   743.61672   287.00000  23.99049             15.34775
528.20305   823.74619   197.00000  18.48641             13.61822
529.41392   998.91941   273.00000  23.31669             15.12268
531.49458   716.83080   461.00000  26.27253             22.66752
531.54870   978.60714   308.00000  21.11148             18.61171
531.21774   560.98790   248.00000  22.72083             13.92039
531.29371   1879.51049  143.00000  14.30755             12.89370
537.76259   1074.27338  278.00000  22.71235             15.81666
536.01493   889.51493   134.00000  14.19076             12.13311
538.92308   901.47692   195.00000  17.56654             14.48645
547.73832   931.87850   214.00000  26.94889             10.64884
544.92218   519.38132   257.00000  19.75412             16.60918
546.57143   1063.56696  224.00000  25.23214             11.50961
545.47674   1123.16279  172.00000  17.52314             12.62500
548.45322   755.64912   342.00000  28.42183             15.85890
548.35938   992.18750   128.00000  13.81724             11.88297
550.56425   724.69832   179.00000  16.19593             14.10938
548.62500   697.91071   56.00000   10.31067             6.91983
555.03681   1584.19325  326.00000  23.73989             18.08419
557.29630   1055.84722  216.00000  19.07601             14.47457
554.21605   1139.71605  162.00000  17.14178             12.21713
557.26523   573.82437   279.00000  20.98710             16.97441
558.82569   942.79358   218.00000  22.45571             12.65653
557.41379   1175.68582  261.00000  21.85318             15.23321
558.37900   823.44292   219.00000  24.92724             11.23145
557.99537   971.22222   216.00000  19.44282             14.42481
561.76824   1646.58798  233.00000  19.81792             15.02732
561.53086   805.47325   243.00000  20.93785             15.09147
562.06944   885.59259   216.00000  20.03209             13.90648
563.72876   1010.61765  306.00000  24.62015             16.02302
557.18367   1624.10204  49.00000   9.59211              6.46650
566.80833   763.02500   240.00000  24.47393             12.90074
563.23333   1033.30667  150.00000  17.12972             11.27520
567.57383   1079.72148  298.00000  25.01257             15.20231
566.88142   737.68379   253.00000  21.51833             15.04954
571.32000   857.34000   300.00000  22.96857             17.03791
567.53125   1790.95833  96.00000   12.84690             9.63918
568.34722   842.93056   72.00000   11.00952             8.37363
578.16129   1222.00806  496.00000  34.84619             18.22538
570.77647   775.97059   170.00000  17.73961             12.25892
575.79032   1730.75806  186.00000  19.36348             12.34002
578.29231   831.21154   260.00000  26.95112             12.38796
582.78201   1032.11419  289.00000  26.32540             14.54397
586.51502   600.99142   233.00000  19.07360             15.79767
592.09510   698.35159   347.00000  22.73972             19.76050
594.24904   724.28352   261.00000  26.27025             13.21823
590.41985   973.63359   131.00000  15.62131             10.78513
592.49774   1677.61991  221.00000  20.39410             14.00306
592.69307   940.39109   202.00000  19.30539             13.70050
593.55365   1143.32618  233.00000  19.55465             15.25816
590.58209   1102.38806  67.00000   10.75505             8.05705
594.86826   907.26347   167.00000  16.50304             12.92207
597.87121   1087.77652  264.00000  23.23929             14.74299
598.98050   1181.86908  359.00000  27.71260             16.74316
601.24348   1013.72609  230.00000  22.59559             13.15274
598.34375   1725.47656  128.00000  13.46295             12.26171
606.58392   1591.26923  286.00000  26.88419             13.81684
604.68224   849.20093   214.00000  20.86540             13.19232
606.43946   962.73543   223.00000  20.24071             14.16955
610.12222   777.75926   270.00000  21.46321             16.44298
613.02110   997.11814   237.00000  23.03840             13.45997
614.96498   606.43191   257.00000  23.11117             14.41214
612.27861   836.69652   201.00000  17.06883             15.21681
616.94949   653.06061   297.00000  24.88805             15.63776
613.27451   1080.89216  204.00000  17.01439             15.44443
616.42912   1204.90421  261.00000  21.41219             15.62307
615.15385   1611.79487  117.00000  15.32127             9.78233
617.66327   1027.50000  98.00000   13.48420             9.41312
621.26923   723.61538   52.00000   8.84452              7.73216
628.02212   872.74336   226.00000  24.21390             12.24047
625.20833   1631.23148  216.00000  19.43908             14.20147
627.00485   1021.54854  206.00000  18.80792             14.01146
629.00840   663.65546   238.00000  19.92794             15.24374
627.32407   787.98611   216.00000  17.25283             15.99505
629.56233   907.27978   361.00000  26.75266             17.73865
627.66296   943.24444   270.00000  22.32834             15.54365
633.09050   1106.20362  221.00000  19.33259             14.66764
638.02312   864.31214   173.00000  18.35518             12.81684
634.06329   1012.68354  79.00000   11.11880             9.14979
637.78404   1747.75117  213.00000  17.27610             15.72673
638.36310   1866.90476  168.00000  14.94661             14.36137
636.80328   983.81967   61.00000   9.64308              8.19652
637.44776   1116.25373  67.00000   10.70364             7.99254
641.12335   1635.72247  227.00000  19.99150             14.61852
643.64777   1128.67206  247.00000  20.18055             15.72600
639.96629   1061.23596  89.00000   11.60766             9.77468
648.69231   967.23077   338.00000  27.06754             17.02449
647.13617   1208.09787  235.00000  22.98146             13.24139
652.82686   988.33569   283.00000  28.55537             12.97800
649.34615   1169.00549  182.00000  19.33804             12.01609
652.43522   780.47508   301.00000  25.43892             15.16554
648.59459   810.28829   111.00000  13.20840             10.80008
646.44118   1007.07353  68.00000   10.38675             8.38609
649.73958   923.89583   96.00000   12.03735             10.19854
652.91018   1025.13174  334.00000  24.11655             17.68716
652.00000   821.45098   102.00000  12.79281             10.17454
651.25694   1757.67361  144.00000  17.88798             10.52686
662.08411   853.88785   107.00000  13.31916             10.46603
664.31579   878.49474   190.00000  17.75328             13.75208
659.70886   979.26582   79.00000   11.08021             9.15176
661.03175   817.76190   63.00000   9.15400              8.80720
666.58523   892.72159   176.00000  17.82533             12.79529
661.03030   1232.57576  33.00000   7.50127              5.52572
663.40000   798.70000   20.00000   5.68832              4.60902
668.90456   1691.95436  241.00000  22.86236             13.49799
671.02105   788.66316   95.00000   11.59245             10.42482
671.89552   800.70149   134.00000  14.81250             11.53857
678.77857   845.62857   280.00000  33.34429             11.25906
676.51042   1064.44792  192.00000  21.22030             11.78928
675.77720   1743.81347  193.00000  17.88496             13.80321
677.04706   776.91176   170.00000  17.13134             12.91071
675.80645   1152.31452  124.00000  14.25914             11.60832
675.40972   955.61806   144.00000  14.94402             12.26969
684.54822   1001.09645  197.00000  25.81079             10.26515
683.45455   1116.80000  165.00000  19.27246             11.09282
682.59322   941.01130   177.00000  15.58084             14.55984
685.19617   1210.44019  209.00000  18.73801             14.36649
685.51827   815.57475   301.00000  22.68688             17.12960
683.55238   1942.22857  105.00000  13.55189             10.95270
688.71875   860.67500   160.00000  17.10924             12.06723
686.03390   1154.78814  118.00000  14.29595             10.87562
684.10000   318.20000   20.00000   5.44059              4.73286
695.21304   1102.85217  230.00000  22.55698             13.32740
692.84914   1229.42672  232.00000  19.98592             14.87102
693.54959   1758.88843  242.00000  21.31081             14.60186
693.26056   965.47183   142.00000  16.38471             11.12376
702.73529   1037.73529  272.00000  26.33715             13.24855
696.29851   1087.49254  134.00000  21.23303             8.95596
697.64000   856.50000   50.00000   8.16823              7.74638
706.11230   1219.57754  187.00000  23.62524             10.41128
702.73034   1787.21348  178.00000  16.09069             14.19786
708.96035   1056.73568  227.00000  21.10275             13.73050
707.35664   925.44755   143.00000  14.59830             12.54025
707.37288   878.81356   59.00000   10.62444             7.07357
716.38037   1076.06442  326.00000  29.65372             14.26458
711.04854   1230.87379  103.00000  12.79159             10.81374
712.17143   895.31429   35.00000   7.44650              5.94130
717.17986   1013.12950  139.00000  13.80595             12.84012
722.10458   947.76471   153.00000  16.10302             12.38271
725.67143   866.15000   140.00000  13.81659             13.01593
728.49805   1224.67315  257.00000  21.31981             15.37259
