# Filename: Nuclei_416_ctrl_002.npz
# Voxel size (nm): (108, 108)
# Area quantity: voxels
# Num nuclei detected: 551
Y           X           AREA       MAJOR_AXIS_LENGTH    MINOR_AXIS_LENGTH
10.52632    511.33971   209.00000  17.20844             15.58009
15.05455    1831.37576  165.00000  17.94388             12.48229
45.59242    494.47393   211.00000  21.28110             12.78367
112.51807   1883.59036  83.00000   11.50823             9.41433
147.66298   1411.79834  362.00000  25.76357             17.92009
162.62500   514.05405   296.00000  33.30151             11.98240
160.32267   1251.06686  344.00000  27.19264             16.54408
160.65608   406.74074   189.00000  18.46083             13.40683
168.87593   1209.77171  403.00000  33.19843             16.90111
178.27296   948.17602   392.00000  30.88096             16.59436
177.22957   433.34630   257.00000  27.52781             13.19306
195.02622   1491.03745  267.00000  33.08980             11.19850
202.69397   1892.85345  232.00000  20.53219             14.56853
209.35622   1960.77682  233.00000  20.36260             14.64592
224.90506   1440.49684  316.00000  31.54363             12.90840
225.05112   1377.11821  313.00000  24.27791             16.58259
242.92289   1084.78795  415.00000  38.52897             13.78545
257.41776   1213.73355  304.00000  29.96164             13.02036
258.24306   1914.42361  144.00000  15.98139             11.64765
275.44172   1888.44172  163.00000  15.22766             13.84258
280.42739   1116.96680  241.00000  22.22714             13.93559
282.97682   1159.47351  302.00000  23.74284             17.14428
294.53292   1339.17555  319.00000  31.39204             13.10092
291.34043   1257.43404  235.00000  22.42996             13.41492
298.15315   1165.02252  222.00000  22.68856             12.64123
297.76855   803.41246   337.00000  29.34322             14.94486
307.04847   1003.43878  392.00000  23.86780             21.41680
331.16262   1217.00728  412.00000  36.27756             15.43228
342.40673   1272.70642  327.00000  23.18321             18.16587
348.67073   526.15244   164.00000  14.95330             14.01566
359.05797   128.71739   276.00000  32.47398             11.79996
363.98500   530.56500   200.00000  21.73225             12.00158
384.69091   917.39221   385.00000  34.38357             14.50207
391.31078   1014.71679  399.00000  31.58081             16.47795
386.33094   1349.06475  417.00000  28.38625             19.25117
420.70333   1244.21667  300.00000  26.95733             14.67138
431.24862   935.67403   362.00000  31.96324             14.65078
451.42045   1262.38258  264.00000  25.93529             13.34426
456.75394   1448.58675  317.00000  25.29189             16.13823
486.34924   1494.18893  524.00000  39.64717             19.90338
473.83959   71.38567    293.00000  22.78487             16.47079
496.70297   1573.07921  303.00000  24.80765             15.72849
506.26611   1288.04202  357.00000  41.79401             11.39261
505.63501   1540.28190  337.00000  26.64256             16.63091
503.80906   1645.57929  309.00000  25.50872             17.08080
609.72124   1140.80531  226.00000  20.33621             14.26752
610.61446   1130.04819  83.00000   10.99763             9.81813
614.89076   1107.07563  119.00000  13.72884             11.03742
640.59366   587.58790   347.00000  26.15730             18.12043
648.07650   1868.62842  183.00000  24.38849             9.81871
649.05202   989.80925   346.00000  27.44923             16.50209
656.91877   1384.19048  357.00000  30.63174             15.08563
653.31429   1829.34286  210.00000  23.35865             11.49815
653.30612   1110.06122  49.00000   9.13105              6.85441
651.71429   1339.92857  28.00000   6.77632              5.19418
657.75720   1763.75720  243.00000  18.47511             16.75464
657.83916   1840.14685  143.00000  15.19928             12.00696
670.73043   924.24058   345.00000  27.49054             16.16658
678.27801   1345.82573  241.00000  26.64957             12.35082
675.41243   876.17514   354.00000  27.60800             16.51599
680.15385   1750.45055  273.00000  22.87300             15.41507
680.23704   1336.28148  135.00000  14.85955             11.59651
684.78860   806.07363   421.00000  34.92386             15.59118
702.14589   1055.31565  377.00000  38.01558             13.08169
703.25971   1513.95388  412.00000  34.79523             15.87281
710.95346   842.56700   709.00000  32.02965             29.52694
706.01840   1799.67485  163.00000  17.84400             11.71827
708.37313   1656.88657  335.00000  26.92705             16.00444
714.37134   705.09121   307.00000  33.75203             12.06868
712.78319   1783.62832  226.00000  27.39218             10.61880
718.61506   1726.36820  239.00000  22.77144             13.59920
720.08197   1801.39891  183.00000  17.95318             13.21418
730.38558   1601.28213  319.00000  29.40252             14.13956
744.47236   1374.61307  199.00000  18.93107             13.42431
749.29651   1772.68023  172.00000  23.98877             9.28658
754.66667   1779.54088  159.00000  20.06050             10.22875
762.29577   1384.10329  213.00000  16.96827             16.05420
772.36213   1038.29900  301.00000  21.50553             18.12480
776.54067   1690.51196  209.00000  18.63735             14.35264
786.73885   1362.33758  157.00000  15.73702             12.79848
792.95469   1679.69256  309.00000  25.50564             15.87923
799.88957   1382.95092  326.00000  32.52935             13.67682
820.32782   679.78788   363.00000  41.23743             11.33312
820.64407   567.97458   472.00000  56.42549             11.11228
819.95361   1426.51289  388.00000  33.95438             15.05219
809.15686   1234.98039  51.00000   8.96731              7.20371
810.73913   196.71014   69.00000   11.34174             7.80588
826.41834   419.05158   349.00000  34.43757             14.03645
820.04348   649.39130   69.00000   10.76459             8.27900
831.09950   1627.75871  402.00000  30.03024             17.80995
830.34069   1653.91912  408.00000  28.00754             18.81302
826.16812   606.39420   345.00000  25.79921             17.81405
831.96078   1276.71078  204.00000  24.57094             11.72913
830.88119   700.47525   101.00000  15.95909             8.15703
840.45538   1810.10769  325.00000  36.25346             11.56514
837.50735   1742.79412  136.00000  15.47019             11.22995
848.01053   456.72632   380.00000  25.96245             19.07860
848.88563   1783.52786  341.00000  25.97874             16.90661
858.54717   1702.86792  159.00000  17.63475             11.47802
860.98131   1393.51869  214.00000  16.94595             16.12223
869.94464   1314.16609  289.00000  28.91083             13.28079
875.35125   421.16129   279.00000  23.36955             15.66692
878.62953   387.02228   359.00000  24.58149             18.97859
878.06957   507.54783   230.00000  21.75736             13.96888
878.43312   1710.00637  157.00000  18.12268             11.07154
882.42857   491.19048   63.00000   10.23503             7.94692
887.50000   1004.30682  176.00000  17.18430             13.21545
897.04336   1728.94580  369.00000  33.33345             14.28331
893.80460   662.97701   87.00000   11.61611             9.64595
897.02256   1682.78947  133.00000  15.42217             11.00083
898.06604   1197.16981  106.00000  12.01099             11.43139
903.45570   572.11392   316.00000  21.45637             20.95427
898.24390   624.00000   41.00000   7.23137              7.16525
904.59494   505.91139   237.00000  22.51675             13.66570
902.13636   656.68939   132.00000  14.34648             11.78485
907.00778   717.74708   257.00000  23.83481             14.88627
901.48077   1241.28846  52.00000   8.65829              7.60596
907.07325   1665.63057  314.00000  22.88302             17.88024
902.75610   1190.70732  41.00000   7.80864              6.72239
908.76961   629.52941   408.00000  30.45272             17.61473
909.42917   1210.54167  240.00000  20.00909             15.44220
907.09220   1258.33333  141.00000  14.95290             12.13052
921.58571   1502.97500  280.00000  41.00321             9.50988
907.93548   1194.77419  31.00000   7.00074              5.67202
907.72222   1233.88889  18.00000   5.07645              4.46192
913.76238   475.61881   202.00000  22.35672             11.79354
916.04911   544.80357   224.00000  22.22104             13.23138
910.93333   1185.80000  60.00000   10.54367             7.27461
925.05828   1778.49693  326.00000  33.69585             13.47099
912.27907   1200.30233  43.00000   8.39885              6.57388
912.79630   588.44444   54.00000   11.87614             5.91479
925.41053   1427.65000  380.00000  30.69869             15.96600
913.85714   1280.57143  28.00000   6.72676              5.29687
922.60145   43.16667    414.00000  34.52355             15.40809
915.21739   1182.30435  23.00000   6.21160              4.66760
920.42667   1611.48000  150.00000  16.36118             11.76007
925.71368   530.75214   234.00000  25.43567             11.92986
917.76562   1119.68750  64.00000   11.12306             7.35433
918.54321   1298.06173  81.00000   12.41574             8.31958
931.24202   359.18351   376.00000  32.75862             14.75304
917.81818   563.18182   33.00000   9.06406              4.63812
932.70588   849.26891   357.00000  35.47014             14.09414
927.66954   1141.02299  348.00000  26.62627             17.53416
919.20408   1152.04082  49.00000   9.47751              6.58493
923.94265   1626.63082  279.00000  21.72618             17.15389
928.82888   1247.25134  374.00000  26.35667             18.82701
929.48665   690.00890   337.00000  33.91360             12.97978
927.96618   660.43478   207.00000  21.82519             12.09622
925.82143   489.46429   56.00000   10.54521             6.82302
924.73913   1161.23188  69.00000   10.09894             8.74461
930.44828   1604.65025  203.00000  21.45035             12.41843
931.89848   1100.22335  197.00000  16.85580             14.96104
928.46809   1195.78723  47.00000   8.52493              7.00379
931.47525   1705.90099  101.00000  14.42157             8.91157
933.90741   451.96914   162.00000  17.86708             11.62470
933.12977   601.30534   131.00000  16.94417             10.00708
933.36538   1655.57692  156.00000  15.75487             12.70632
934.83333   440.30833   120.00000  16.84726             9.29180
936.73333   1992.56667  330.00000  25.33984             16.67966
936.98454   1123.71134  194.00000  17.39804             14.37825
949.87013   572.98918   462.00000  36.87508             17.96171
936.81818   1171.59091  88.00000   13.33464             8.40340
942.85714   971.88571   315.00000  23.33191             17.52280
938.36196   1294.19018  163.00000  15.61146             13.32141
942.49235   2015.00765  392.00000  24.48278             20.45353
947.87407   620.92963   270.00000  29.58320             12.06148
950.23404   1727.54610  282.00000  29.68989             12.67197
949.96552   1596.86207  174.00000  17.73289             12.63013
951.29084   414.63745   251.00000  18.44313             17.38926
951.71892   1309.45946  185.00000  16.20322             14.81464
951.42657   1540.11189  143.00000  15.34642             12.08036
952.30137   1552.19863  146.00000  15.23806             12.24932
955.91469   1658.85782  211.00000  26.69127             10.55469
948.71795   460.05128   39.00000   7.29878              6.77685
954.20968   1271.72043  186.00000  18.29664             12.98673
952.35533   479.79188   197.00000  21.77620             11.69137
955.94595   1528.51351  185.00000  16.79993             14.23905
958.45288   1096.12042  382.00000  25.00050             20.27521
964.00915   533.37805   328.00000  27.31615             16.26244
955.65079   1057.47619  63.00000   9.75520              8.20877
955.21667   1068.08333  60.00000   10.99939             7.06290
959.81897   608.87069   232.00000  21.59641             13.93989
958.76623   1323.27922  154.00000  15.62183             12.65600
957.06667   1294.22222  45.00000   8.35543              6.95965
961.64251   454.12077   207.00000  18.03552             14.94393
964.76531   1663.96429  196.00000  25.67537             10.11950
965.83728   1015.73373  338.00000  24.61962             17.59193
969.44762   1562.05714  105.00000  14.47065             9.36404
972.96447   1045.18782  197.00000  17.34580             14.74867
973.71148   1118.29508  305.00000  20.74356             18.90588
969.00000   1063.66667  42.00000   7.44077              7.14476
975.65089   656.02959   338.00000  35.65126             12.63108
974.65169   434.12360   89.00000   11.53676             9.82994
974.53704   1310.75926  54.00000   10.47757             6.63974
980.65613   1429.42688  253.00000  22.42342             14.55599
977.39037   1544.33690  187.00000  18.64291             13.08203
979.15642   1527.38547  179.00000  17.53402             13.02689
982.80500   1625.18500  200.00000  20.91298             12.20047
986.26944   459.59444   360.00000  28.12667             16.63957
983.24775   1060.96847  222.00000  18.46046             15.34166
988.53000   1361.95000  200.00000  20.96528             12.28669
999.46154   244.02564   390.00000  33.69246             15.68486
995.15094   570.97358   265.00000  25.74526             13.37493
992.75843   1348.83708  178.00000  16.04379             14.20010
992.32082   1460.82935  293.00000  23.97701             15.88956
994.31658   395.21106   199.00000  21.55978             11.85147
997.47137   1604.56388  227.00000  31.13200             9.55703
996.08368   1676.28033  239.00000  21.27290             14.57408
993.62121   1033.74242  66.00000   11.01704             7.65116
997.36058   1495.04808  208.00000  18.42463             14.44992
995.75000   590.84615   52.00000   9.64270              6.93551
994.72500   1061.72500  40.00000   7.21110              7.20972
1001.70093  1048.89720  107.00000  15.97794             8.69002
1001.15385  624.69231   182.00000  22.89362             10.40128
1003.92222  1394.23333  90.00000   12.47835             9.26346
1005.76952  1995.36431  269.00000  20.43338             16.79512
1007.16379  1014.58621  116.00000  13.89725             11.12814
1010.16599  681.44534   247.00000  30.64692             10.85134
1013.36994  1407.64162  173.00000  18.29567             12.08378
1015.80412  1359.53608  97.00000   11.89993             10.39351
1015.88889  1610.32222  90.00000   12.27265             9.44052
1027.00000  929.73034   267.00000  25.86036             13.47197
1017.21212  999.45455   33.00000   6.83915              6.11905
1021.71698  709.00943   212.00000  20.79253             13.73781
1024.30348  1370.87562  201.00000  17.60925             14.59210
1024.32450  1601.47682  151.00000  14.68843             13.14465
1029.03057  1028.10917  229.00000  20.49328             14.38138
1026.51961  1012.25490  102.00000  13.08584             9.96609
1024.53191  1396.80851  47.00000   8.48643              7.03599
1032.75636  2015.18182  275.00000  23.61691             15.03473
1032.97183  1675.69366  284.00000  25.44602             14.24730
1031.50000  1001.64286  42.00000   9.94476              5.46974
1032.48980  1017.91837  49.00000   8.53805              7.50874
1033.25000  654.60000   60.00000   9.14026              8.33240
1049.73832  863.12150   321.00000  40.09289             11.26738
1043.27381  1555.31746  252.00000  27.79853             11.78583
1037.50000  623.20000   40.00000   8.05978              6.26099
1041.54726  987.50249   201.00000  18.34571             14.02756
1040.57407  1001.59259  108.00000  13.39189             10.29863
1046.49604  1618.46702  379.00000  28.54111             18.00072
1044.22308  706.05385   130.00000  18.42783             9.29534
1050.77574  743.92647   272.00000  19.29918             18.42961
1053.55714  692.23333   210.00000  23.96974             11.16606
1049.46067  656.26966   89.00000   12.77196             9.03694
1054.73702  1787.94464  289.00000  24.08096             15.62328
1052.55172  1022.20690  58.00000   10.28927             7.16479
1061.74286  970.71905   210.00000  20.15166             13.59724
1066.74648  1707.33803  284.00000  24.52918             14.80287
1067.42857  1480.97143  35.00000   8.15903              5.40567
1078.31313  740.54545   198.00000  22.33865             11.56227
1074.07143  995.95714   70.00000   9.82121              9.14041
1080.25592  1349.51185  211.00000  18.97621             14.15990
1082.80203  787.61929   197.00000  19.40820             13.09667
1083.16058  947.42336   137.00000  16.99620             10.41310
1078.05556  1370.96296  54.00000   9.64568              7.07111
1085.84718  1488.66777  301.00000  23.83280             17.12678
1084.00000  1420.50641  156.00000  18.04504             11.01125
1087.47321  748.56696   224.00000  26.33081             11.65110
1087.49315  771.94521   73.00000   11.46375             8.11473
1091.09424  899.51832   191.00000  16.58900             14.65799
1092.92237  1502.70776  219.00000  27.12644             10.51414
1096.69481  964.48052   154.00000  14.53046             13.52604
1095.35294  784.08824   34.00000   7.12029              6.08820
1104.24847  78.26074    326.00000  29.52156             14.70937
1099.93893  822.33588   131.00000  13.83298             12.08642
1101.70345  1394.60690  145.00000  16.00158             11.88628
1100.17241  1559.27586  87.00000   13.08793             8.53802
1103.09868  929.10526   152.00000  15.21895             12.71336
1103.41509  1459.35220  159.00000  16.80429             12.09891
1114.41489  1637.57447  282.00000  29.83525             12.44251
1107.69600  915.40800   125.00000  14.48203             11.05118
1110.24479  1441.08333  192.00000  25.22544             9.77364
1110.46452  857.58065   155.00000  16.24000             12.13830
1121.03404  1326.91915  235.00000  33.06008             9.34342
1115.36181  787.54774   199.00000  21.91740             11.90452
1114.81111  1319.95556  90.00000   13.31816             8.74209
1117.74396  1607.99517  207.00000  21.55409             12.66113
1120.68667  1714.02667  300.00000  30.60016             12.60985
1121.45833  920.51667   120.00000  13.83675             11.14654
1123.11875  863.19375   160.00000  16.18444             12.58720
1127.29474  234.71579   380.00000  32.60575             15.06314
1132.91697  1031.20939  277.00000  28.50389             12.47677
1128.52846  1658.55285  246.00000  22.65070             13.93576
1128.93125  877.03750   160.00000  16.84775             12.44006
1136.61850  1001.45376  346.00000  30.11762             15.18745
1131.13924  819.91139   158.00000  17.93081             11.28120
1129.49123  1067.07018  57.00000   10.01806             7.19506
1134.03247  853.14286   154.00000  15.96233             12.34686
1131.06667  1474.06667  30.00000   7.31049              5.13951
1137.46786  1912.53214  280.00000  26.77866             13.61140
1142.65204  1868.58934  319.00000  32.58621             12.85896
1140.87898  1468.95541  157.00000  17.53096             11.48211
1147.36415  1559.38375  357.00000  32.78237             14.08133
1146.13230  1974.51362  257.00000  26.79042             12.32307
1143.94595  706.56757   37.00000   7.45712              6.25160
1147.05729  1387.17708  192.00000  17.24006             14.36348
1151.34899  1449.62416  149.00000  15.81437             12.09272
1153.46809  1414.66383  235.00000  21.09760             14.54072
1158.74114  1590.46049  367.00000  25.64119             18.52885
1153.40278  1471.77778  144.00000  14.90269             12.34106
1159.47059  1911.80672  238.00000  18.23429             16.82060
1162.05224  1619.60448  268.00000  27.06286             13.11639
1165.89520  1023.48472  229.00000  25.18786             11.69757
1170.54791  1044.77396  407.00000  34.04368             15.95654
1161.45385  1359.03077  260.00000  29.32854             11.38027
