# Filename: Nuclei_416_bidi_60x_014.npz
# Voxel size (nm): (108, 108)
# Area quantity: voxels
# Num nuclei detected: 1292
Y           X           AREA       MAJOR_AXIS_LENGTH    MINOR_AXIS_LENGTH
57.44928    746.31884   207.00000  17.73893             14.95406
72.34848    712.37879   264.00000  22.13737             15.22760
75.02807    734.07368   285.00000  22.07315             16.52906
101.97354   1064.14286  189.00000  18.93407             12.85899
103.47126   731.71264   174.00000  17.65929             12.74187
110.15068   1441.75342  146.00000  16.77599             11.53304
125.96648   1078.06704  179.00000  19.27265             12.42656
134.42767   1106.71698  159.00000  17.07177             12.04998
134.55172   1316.54023  87.00000   11.52966             9.76321
140.67760   682.60109   183.00000  18.72512             12.76446
146.52542   711.75424   118.00000  13.23071             11.78502
150.39264   797.55215   163.00000  16.73828             12.44944
157.09167   705.78333   120.00000  12.90211             11.91008
170.26190   116.69841   126.00000  14.08225             11.57560
179.49606   1038.39764  254.00000  20.93773             15.70379
191.85882   1281.10588  170.00000  16.46034             13.16658
207.17293   786.20301   133.00000  13.74600             12.38905
222.70062   726.25617   324.00000  26.43754             16.04022
223.76555   1136.29665  209.00000  19.02905             14.00240
223.40000   1568.49474  95.00000   12.35504             9.88529
230.28682   693.73643   258.00000  21.23243             15.70947
232.71515   1185.35152  165.00000  16.24791             13.02969
237.08108   1208.43694  222.00000  23.37125             12.15048
240.57895   1145.77895  190.00000  18.08192             13.39420
243.56000   1223.27556  225.00000  20.48488             14.03818
240.23308   1236.01504  133.00000  13.61406             12.48197
246.18090   1559.78392  199.00000  18.47008             14.49233
248.06584   784.46502   243.00000  21.56677             15.20950
249.22936   1035.58257  218.00000  24.56083             12.19559
255.85135   1519.01351  222.00000  21.17731             13.47782
257.20536   1377.03571  224.00000  21.18758             13.63682
258.25641   802.77436   195.00000  19.52660             12.72769
260.33488   1316.04186  215.00000  21.77126             12.62350
259.96135   1495.18357  207.00000  19.51978             13.56678
262.51500   1542.31000  200.00000  20.69102             12.44912
263.26804   1136.59278  194.00000  18.28282             13.58583
265.50000   1054.55238  210.00000  20.06965             13.39167
267.98291   1356.22222  117.00000  14.04981             11.08612
270.94500   1191.02500  200.00000  17.89516             14.24447
279.80569   1330.67299  211.00000  18.92323             14.29062
280.46739   1288.84239  184.00000  16.97388             13.84052
280.20213   1383.44681  188.00000  16.57551             14.58213
285.07834   1468.94470  217.00000  18.24726             15.21872
288.18874   1156.97682  302.00000  23.69365             16.39069
290.64706   1537.91444  374.00000  24.04111             19.96201
287.31188   1358.19307  202.00000  16.92876             15.20477
297.71146   1276.68379  253.00000  24.28962             13.32475
296.33498   1124.94581  203.00000  18.89267             13.83090
296.20080   1442.73896  249.00000  19.04026             16.66894
297.13333   792.81818   165.00000  17.54836             12.10832
299.08000   1140.36000  175.00000  19.43630             11.61415
299.71074   1307.37603  242.00000  20.71033             14.95149
300.95455   1421.59091  154.00000  18.41210             10.92587
301.92958   1331.26761  213.00000  17.62247             15.43966
316.98851   1467.71648  261.00000  22.35812             14.95352
319.41241   1055.60219  274.00000  24.30338             14.50916
322.83902   1408.04390  410.00000  29.92993             17.56903
318.40000   1125.22222  180.00000  19.11214             12.06273
329.63750   793.57812   320.00000  25.08223             16.53426
330.96063   1037.69291  254.00000  26.81224             12.43611
327.11170   1385.93085  188.00000  17.25942             13.91334
331.05389   1103.08383  167.00000  19.18604             11.13125
333.50988   1306.83794  253.00000  23.11548             14.00747
334.44776   1241.55224  268.00000  22.62840             15.40652
336.03409   1374.26136  176.00000  16.32984             13.94298
338.91133   1117.73892  203.00000  17.96433             14.45521
349.47208   1053.39594  197.00000  20.52159             12.22789
349.94712   60.94231    208.00000  17.61151             15.13930
350.90964   726.34337   332.00000  23.10965             18.40702
356.86466   1435.58647  133.00000  14.53174             11.68230
363.84709   1373.88991  327.00000  23.16546             18.10718
363.40690   1329.93103  290.00000  22.38488             17.21343
366.98113   1407.06132  212.00000  18.28338             14.87277
370.80676   1423.73430  207.00000  22.27054             11.91907
365.32824   1489.54198  131.00000  14.06121             12.00810
377.42857   112.31169   77.00000   11.23437             8.88584
382.36667   699.06667   120.00000  13.36468             11.49912
384.73864   1346.02273  176.00000  17.84102             12.59353
386.03922   687.86928   153.00000  15.31920             12.75221
389.19512   1281.06707  164.00000  16.50827             12.79733
395.00339   1189.77288  295.00000  26.66494             14.26407
399.66031   1216.47328  262.00000  24.46886             13.86071
401.52778   1041.93519  216.00000  19.53504             14.16590
397.17000   1479.59000  100.00000  12.16072             10.55296
404.64634   809.00000   164.00000  22.10455             9.73414
404.45205   795.10274   146.00000  16.37424             11.35754
404.28667   1256.80667  150.00000  16.29907             11.75531
411.50167   48.05686    299.00000  24.84459             15.47959
408.93750   683.27083   144.00000  14.14406             13.14190
413.16335   1097.40637  251.00000  22.78946             14.21386
410.22222   1470.61806  144.00000  13.98305             13.11976
415.42079   1322.50000  202.00000  20.52777             12.64189
419.19847   647.45420   262.00000  19.11320             18.11348
419.11060   1251.34101  217.00000  18.29060             15.16443
423.49833   1055.78261  299.00000  23.67252             16.29719
421.21387   1385.82659  173.00000  16.83351             13.09451
422.16667   795.87879   132.00000  15.32985             11.04046
420.57303   810.88764   89.00000   14.51381             7.94256
424.42135   1085.10674  178.00000  16.21901             14.06843
424.01250   1403.36875  160.00000  19.16279             10.72891
424.03086   770.98765   162.00000  17.64053             11.73384
424.76692   1417.84211  133.00000  15.37535             11.05758
426.86301   1439.96804  219.00000  17.65914             15.92284
426.72081   1301.27919  197.00000  21.72139             11.74353
429.83333   1339.14341  258.00000  21.04757             15.75421
431.00625   1501.62500  160.00000  19.10846             10.74783
433.88710   1323.10215  186.00000  18.87463             12.56129
437.14948   1123.19588  194.00000  19.26281             12.88224
438.49778   1268.86222  225.00000  19.59493             14.75012
439.11111   643.97585   207.00000  18.25738             14.52325
441.82490   1486.79377  257.00000  24.40344             13.54174
441.62667   775.29333   150.00000  16.63157             11.50525
448.49704   1308.10651  169.00000  17.67995             12.20223
449.06707   1294.87805  164.00000  15.23590             13.76622
452.74390   803.20732   82.00000   13.47467             7.78451
460.30928   1321.03093  291.00000  21.06927             17.63657
460.39464   1100.38314  261.00000  19.44515             17.40930
459.66667   1219.41667  84.00000   11.70161             9.15697
465.20930   1142.25581  215.00000  20.34436             13.53259
470.09459   1436.30631  222.00000  23.38800             12.46134
467.89831   1209.76271  118.00000  14.16971             10.69376
470.69006   1309.12281  171.00000  15.51361             14.18610
479.12628   815.77474   293.00000  28.94035             13.91527
475.41327   734.70918   196.00000  19.29727             12.98740
477.11475   1478.45902  244.00000  22.32785             14.06018
476.92500   1173.67500  120.00000  13.89020             11.29967
479.64444   1352.81481  135.00000  13.67020             12.73572
484.44022   1391.83696  184.00000  18.12767             13.05975
489.05319   1218.10638  282.00000  22.55764             16.19137
490.60000   1127.69268  205.00000  18.53845             14.17249
489.65644   1168.83436  163.00000  17.27670             12.12806
495.08696   757.07609   184.00000  20.37938             11.72649
492.22222   1408.01932  207.00000  18.93789             13.99447
492.49697   1183.25455  165.00000  17.53157             11.98362
498.06897   724.89655   174.00000  17.00041             13.11411
502.40464   1043.37887  388.00000  24.66988             20.18487
505.03900   1357.44568  359.00000  25.42085             18.97024
506.00442   37.90708    226.00000  19.32634             15.48793
509.12185   673.70588   238.00000  20.58897             15.75716
505.41358   1233.20988  162.00000  16.52803             12.51665
507.08442   1171.80519  154.00000  16.17391             12.13860
508.87952   1378.54819  166.00000  15.65812             13.55043
513.13260   710.88398   181.00000  17.35669             13.42032
518.40884   1392.46409  181.00000  17.88118             12.93158
521.73010   1268.34948  289.00000  21.79309             17.06177
524.80838   825.92814   167.00000  23.08165             9.41040
522.12857   1334.08571  140.00000  13.55277             13.15177
526.53917   1456.94470  217.00000  21.90078             12.62601
527.94466   995.68379   253.00000  28.52187             11.81815
528.12500   1356.85000  240.00000  21.45140             14.38614
536.58650   835.57384   237.00000  25.36530             11.96083
533.93678   712.12644   174.00000  17.60126             12.70859
539.24747   369.23232   198.00000  19.37391             13.19703
543.98561   1078.78058  278.00000  28.81023             12.86073
539.15079   1197.32143  252.00000  18.61485             17.61972
540.92593   271.25463   216.00000  18.57575             14.96545
542.46721   1131.81967  244.00000  22.83418             13.73629
544.62745   582.01569   255.00000  18.20827             17.95787
546.66387   513.49580   238.00000  19.94198             15.28459
545.79412   1381.37745  204.00000  17.94751             14.64441
552.62112   798.45963   161.00000  32.38941             8.84692
546.73913   1286.58152  184.00000  16.82090             14.06944
549.36364   543.33992   253.00000  20.89584             15.54899
548.03049   1146.23171  164.00000  17.32779             12.09094
554.60000   1327.77500  200.00000  29.79348             8.79650
548.13139   291.07299   137.00000  15.57790             11.22580
556.04274   779.73932   234.00000  19.66698             15.40755
557.31050   1125.27397  219.00000  22.65460             13.13533
557.55474   847.64964   137.00000  16.17573             10.84251
559.65106   690.75319   235.00000  21.24151             14.25374
563.18972   656.87747   253.00000  21.29505             15.27085
562.14091   1224.44545  220.00000  18.97602             14.80970
562.19774   604.59887   177.00000  18.58256             12.43501
560.40394   1095.40394  203.00000  21.21957             12.63337
564.98969   97.38144    291.00000  21.56764             17.28751
563.82158   292.54357   241.00000  21.18336             14.51639
561.85484   1073.90323  124.00000  14.87380             10.76250
564.50570   1463.05703  263.00000  21.78009             15.88627
567.49451   1138.92857  182.00000  21.65488             10.85142
569.05983   1261.24786  234.00000  18.24385             16.54836
574.91600   525.96000   250.00000  27.12643             12.13073
570.94000   1055.26000  250.00000  19.77446             16.19949
568.10784   1101.95098  102.00000  13.93036             9.45137
569.10811   1427.12432  185.00000  18.09001             13.07994
568.00000   1342.65625  64.00000   9.82073              8.34642
570.18966   778.19828   116.00000  12.80650             11.66912
572.18026   990.75107   233.00000  22.35219             13.29563
573.78761   1092.11504  113.00000  13.44133             10.83051
575.33333   349.58333   240.00000  19.90616             15.48298
574.20805   928.97987   149.00000  16.08944             11.84581
573.56250   888.84375   64.00000   10.18683             8.04831
576.43478   608.35652   115.00000  14.35094             10.19041
578.41489   1130.38830  188.00000  25.30492             9.60634
579.50166   1234.87375  301.00000  22.44993             17.53889
578.10063   1347.74843  159.00000  15.25559             13.33664
582.89157   806.83735   166.00000  17.30489             12.23767
583.74895   1572.02092  239.00000  19.85786             15.38017
583.32420   974.96804   219.00000  19.95048             14.02630
584.98462   1210.14872  195.00000  18.50653             13.48891
587.36652   368.06335   221.00000  20.47047             13.78945
587.57368   556.66842   190.00000  18.62976             13.08481
585.89080   653.85057   174.00000  16.62195             13.40576
589.02128   1548.38298  235.00000  20.24687             15.00637
591.62230   610.87410   278.00000  23.30474             15.45359
590.12775   1320.33480  227.00000  20.70005             14.07499
589.13636   1138.52273  44.00000   7.80222              7.30514
595.04848   1216.90909  165.00000  16.10516             13.48196
603.04651   827.01938   258.00000  33.11840             10.18887
597.46277   384.45745   188.00000  17.70590             14.08722
595.92202   1281.51376  218.00000  17.47704             15.96422
597.32804   1655.11640  189.00000  16.02013             15.12833
599.49091   703.03273   275.00000  19.64059             17.86138
597.94611   722.25749   167.00000  16.20132             13.22955
600.53804   867.64674   184.00000  19.98504             11.81248
599.83810   1188.94286  210.00000  17.40809             15.44856
605.05179   1330.58566  251.00000  21.03602             15.69285
601.52500   507.13333   120.00000  14.96258             10.28073
607.58122   1065.75381  394.00000  25.24982             20.43315
613.21359   847.41262   206.00000  26.20659             11.50488
612.00917   776.60550   218.00000  23.71265             11.91670
612.15417   566.87083   240.00000  23.69943             13.70973
608.49398   760.25301   83.00000   12.81539             8.24293
610.17925   1734.00472  212.00000  18.88541             14.32890
614.44828   654.02299   174.00000  15.59288             14.25166
616.82500   673.61071   280.00000  19.85501             18.38651
614.83598   728.98942   189.00000  16.39360             14.77673
618.97931   577.91034   145.00000  16.75185             11.34105
619.65863   606.20884   249.00000  23.34762             13.76294
620.52907   425.20349   172.00000  19.78450             11.13511
624.47718   1088.12448  241.00000  25.72563             12.16732
621.86957   1166.94466  253.00000  20.12160             16.06661
622.10156   524.12500   128.00000  14.29479             11.66700
623.16352   629.33962   159.00000  18.01912             11.50255
623.91866   1350.19617  209.00000  17.17139             15.61011
624.58898   455.55932   236.00000  19.02768             15.90016
623.76293   1254.33190  232.00000  28.78947             10.68456
622.64815   782.72222   54.00000   10.06436             6.91300
627.91111   621.15556   90.00000   12.21287             9.61590
634.66867   498.67470   332.00000  23.63025             19.01154
633.19130   773.00290   345.00000  24.18432             18.56394
632.91603   804.40458   262.00000  19.95338             16.84735
633.62595   1272.68702  262.00000  21.48471             16.32700
633.24194   1171.90323  124.00000  18.12025             8.93647
633.73973   789.98630   146.00000  17.49855             10.75768
634.47826   549.50000   138.00000  14.03115             12.57974
640.82969   1141.46725  229.00000  23.70136             12.44096
643.88571   394.68095   210.00000  24.58151             11.02755
636.02500   1037.85000  40.00000   7.77980              6.59581
643.72889   373.51556   225.00000  19.94446             14.54948
643.63830   515.53723   188.00000  15.87034             15.18313
643.62360   559.96629   178.00000  17.14088             13.30353
642.82540   1226.44444  189.00000  17.56610             13.87761
649.02564   718.57692   234.00000  21.12599             14.25462
649.33962   645.21226   212.00000  17.17313             15.83251
646.37500   707.16964   112.00000  14.11850             10.13270
650.75319   887.85106   235.00000  19.47392             15.40926
650.42241   290.48707   232.00000  18.73590             15.94511
650.99359   757.54487   156.00000  17.62346             11.35652
650.41139   1251.48101  158.00000  17.17274             11.80231
651.45729   1282.05528  199.00000  17.99349             14.14056
656.35648   573.57407   216.00000  21.02812             14.02883
655.75738   250.64918   305.00000  23.30703             16.82531
653.22785   819.31013   158.00000  17.25376             11.66577
654.78610   1147.34759  187.00000  19.74929             12.13586
655.39583   404.12500   96.00000   11.39205             10.99079
659.44944   586.14607   178.00000  21.84220             10.66219
653.91228   1265.98246  114.00000  13.80761             10.58768
656.57724   476.64228   123.00000  15.50495             10.18959
658.95714   539.70714   280.00000  20.69139             17.55503
658.20085   697.58974   234.00000  23.62065             12.99672
660.34975   1230.26601  203.00000  19.21424             13.51589
661.82828   1301.47138  297.00000  24.28402             15.73122
662.06699   608.02392   209.00000  20.23651             13.19602
662.15423   133.05473   201.00000  17.25912             14.82913
663.44056   744.16783   143.00000  16.59173             11.31793
661.76364   465.75455   110.00000  14.07558             10.33363
665.95000   455.15000   180.00000  19.46599             11.84566
664.42857   651.51786   168.00000  19.40270             11.11930
664.92614   814.86932   176.00000  19.58038             11.72693
667.27273   687.68984   187.00000  18.47186             13.15710
668.02381   711.26667   210.00000  20.06298             13.44005
669.58051   775.72881   236.00000  21.03423             14.56288
668.35333   842.72667   150.00000  22.38698             8.88165
669.45259   860.04310   232.00000  18.60340             16.05335
669.76282   428.46795   156.00000  15.96098             12.50732
672.12987   469.66883   154.00000  19.66554             10.56927
670.17829   571.49612   129.00000  15.25583             10.84737
671.39175   304.97423   194.00000  16.76442             14.76529
670.83007   1149.20261  153.00000  16.17713             12.07297
677.12389   513.94690   339.00000  21.86552             19.90192
674.98734   666.33544   158.00000  17.11056             11.94959
676.73494   351.78313   166.00000  16.48696             12.84720
677.12329   378.42466   146.00000  17.98784             10.71138
677.87425   403.08383   167.00000  15.48881             13.76342
678.17989   1106.04762  189.00000  17.84332             13.67048
677.91919   543.62626   99.00000   14.99318             8.63728
683.22993   639.01095   274.00000  20.13800             17.41989
681.69588   261.78351   194.00000  16.13771             15.42338
682.34783   538.04348   92.00000   17.11525             7.00730
682.85802   1119.07407  162.00000  16.24795             13.17644
688.82353   311.43137   306.00000  28.18993             14.80050
687.32796   718.96237   186.00000  21.08832             11.84811
686.20603   1806.13568  199.00000  18.26609             13.93197
689.00000   143.59624   213.00000  18.35901             14.94216
688.40120   604.64671   167.00000  18.63714             11.65937
