# Filename: Nuclei_416_bidi_60x_003.npz
# Voxel size (nm): (108, 108)
# Area quantity: voxels
# Num nuclei detected: 1141
Y           X           AREA       MAJOR_AXIS_LENGTH    MINOR_AXIS_LENGTH
29.43416    278.64769   281.00000  24.52528             14.66591
55.34568    133.39506   81.00000   12.90634             8.75905
79.56863    222.72549   102.00000  12.98284             10.07268
120.35971   340.64029   139.00000  16.69269             10.84246
132.18056   356.22222   72.00000   10.12037             9.16756
134.29167   207.16667   72.00000   11.25464             8.62650
138.50370   372.08889   135.00000  15.65493             10.98872
145.61702   235.29078   141.00000  16.33383             11.74323
152.34188   196.91453   117.00000  13.19509             11.44761
158.63291   342.70886   158.00000  15.60527             12.97519
161.94819   276.23834   193.00000  16.33514             15.25139
170.29480   314.84971   346.00000  25.11197             17.71339
170.32500   334.72500   120.00000  16.89599             9.08619
177.87970   294.81203   133.00000  14.05143             12.12037
203.94366   385.18310   213.00000  18.63129             14.67285
209.62626   276.42929   198.00000  20.68940             12.43559
209.49419   219.87791   172.00000  16.50821             13.48153
234.54369   440.76214   206.00000  17.64590             14.92886
240.45736   348.62016   129.00000  16.83143             9.96317
248.15209   395.42205   263.00000  20.27685             16.71735
255.19178   456.60959   146.00000  15.85211             11.81761
255.88816   433.95395   152.00000  17.73253             10.96680
271.02841   198.79545   176.00000  16.92535             13.33605
269.21569   417.75490   102.00000  12.66465             10.47589
273.81111   283.62778   180.00000  16.48576             14.06686
278.50282   212.74011   177.00000  18.36771             12.34571
291.11579   430.52632   95.00000   11.55577             10.45122
296.45850   473.43083   253.00000  19.57017             16.54181
294.79070   413.82946   129.00000  14.28685             11.61623
300.86154   294.09231   195.00000  16.68795             15.08548
301.29851   155.80597   134.00000  17.88252             10.13827
302.53982   270.50885   226.00000  19.81131             14.76838
305.87742   419.52258   155.00000  15.16552             13.20521
307.12653   395.46939   245.00000  18.27929             17.10795
319.34470   324.00000   264.00000  19.88339             17.34214
317.95890   360.52055   219.00000  19.42248             14.37886
326.16923   515.80385   260.00000  24.32402             13.73398
324.87000   177.72000   200.00000  18.60432             13.71257
326.98942   397.51852   189.00000  16.69346             14.53434
328.34343   305.42424   198.00000  16.97016             14.87776
332.50318   416.65605   314.00000  22.10811             18.47604
337.42601   116.08072   223.00000  21.70300             13.12303
344.57075   333.01415   212.00000  20.28023             13.45106
345.92754   517.42512   207.00000  19.37719             13.69026
360.77049   548.34016   244.00000  20.82656             15.01320
359.88710   344.34677   124.00000  14.50389             11.01433
365.07353   527.23529   272.00000  22.72145             15.55064
365.31855   397.83468   248.00000  18.69890             16.90676
368.86290   247.23387   124.00000  13.60899             11.62617
379.44019   433.26316   209.00000  17.27638             15.54182
379.00000   172.47917   96.00000   14.11859             8.69818
384.22628   547.02190   274.00000  23.01357             15.95252
391.77751   481.19071   409.00000  25.93747             20.19430
395.62295   843.64754   122.00000  14.43405             10.80312
395.93814   827.91753   97.00000   13.17355             9.46284
403.57190   339.38235   306.00000  22.11252             17.75322
403.16751   366.75127   197.00000  18.16000             13.84409
406.96133   252.40884   181.00000  19.30366             12.12488
413.08911   496.47525   202.00000  17.26698             14.92064
414.39326   35.64045    178.00000  16.86780             13.55519
417.11538   55.14615    130.00000  18.53400             9.87603
415.90338   403.00966   207.00000  19.07366             13.91576
414.36250   828.57500   80.00000   11.40457             9.11830
421.20775   429.71479   284.00000  21.71610             16.94055
424.07166   544.85342   307.00000  25.67329             15.56075
421.58861   255.57595   158.00000  16.38542             12.42940
423.22772   137.06931   101.00000  12.04698             11.17384
435.31905   157.74762   210.00000  19.41494             13.83415
437.69667   340.80000   300.00000  28.76278             13.66956
438.60390   394.29221   154.00000  16.29341             12.09266
443.29714   141.62286   175.00000  15.82522             14.20340
446.37853   382.31638   177.00000  16.09462             14.16074
455.02215   419.39241   316.00000  32.71898             13.73011
455.75912   301.44526   274.00000  29.44900             12.26528
454.01307   47.73856    153.00000  15.44502             12.96106
460.91753   84.19072    194.00000  16.29802             15.28267
460.49558   119.24779   226.00000  20.09766             14.39594
461.29245   324.36792   212.00000  16.82432             16.09560
471.36216   390.52973   185.00000  16.75931             14.05229
470.17722   147.93671   79.00000   13.20970             9.31722
474.24870   66.91710    193.00000  17.08661             14.45683
474.15476   406.66071   168.00000  16.30645             13.16447
480.00467   174.36916   214.00000  22.80031             12.62480
481.13636   135.95455   66.00000   9.47392              9.19020
490.21111   351.41389   360.00000  26.33535             18.51413
481.54286   879.51429   35.00000   6.92632              6.50224
489.05844   233.25325   154.00000  15.88614             12.41089
498.29008   407.74809   262.00000  26.92092             12.75913
494.93548   209.22581   155.00000  15.89366             12.42394
497.81333   379.13778   225.00000  23.74716             12.71823
504.18254   142.68254   252.00000  19.30618             16.67567
505.86885   286.41803   244.00000  20.20897             15.43049
510.26606   265.85780   218.00000  18.12408             15.36250
510.58503   376.90476   147.00000  14.49756             12.96078
515.69298   394.44298   228.00000  21.20913             14.02437
515.08065   162.06452   124.00000  13.77013             11.64612
524.23977   282.70760   171.00000  17.52288             12.45883
525.73154   102.30201   149.00000  14.92810             12.79848
526.43262   406.97163   141.00000  13.98266             12.93090
534.69110   457.76963   191.00000  17.14320             14.29190
535.89785   476.55376   186.00000  16.12002             14.74138
537.93627   418.01961   204.00000  16.96174             15.33907
542.07865   340.85768   267.00000  22.56416             15.16085
543.63514   224.52703   222.00000  20.45481             13.91219
544.17127   51.13260    181.00000  15.78263             14.65225
546.34177   28.02532    158.00000  14.70687             13.70783
547.91901   315.10211   284.00000  21.87154             16.83425
546.81609   1072.90805  87.00000   12.36886             8.97963
553.14414   197.92342   222.00000  18.27609             15.60462
553.09541   259.44170   283.00000  25.42617             14.20579
558.13842   513.28814   354.00000  30.08740             15.36910
556.83794   375.18182   253.00000  26.82276             12.46154
567.47273   186.09091   165.00000  15.13852             13.91715
571.63878   536.20913   263.00000  20.14502             16.88338
569.70386   432.45494   233.00000  26.75628             11.32908
570.88660   1279.40206  97.00000   12.71398             9.94084
573.30049   372.56158   203.00000  20.40446             12.78025
581.91509   291.69340   212.00000  18.80863             14.46965
580.55093   447.88889   216.00000  21.60869             12.96475
582.71774   1277.98790  248.00000  21.97528             14.58690
586.48498   304.64378   233.00000  22.97615             13.09729
584.77311   325.52101   119.00000  13.88783             10.95192
586.54404   48.66839    193.00000  19.53760             12.64315
586.56028   133.49645   141.00000  14.53132             12.38231
586.45038   378.03817   131.00000  15.02258             11.26773
589.58549   179.39378   193.00000  17.37258             14.22360
593.50000   163.33846   130.00000  14.01282             12.13356
600.82988   320.63485   241.00000  18.88630             16.53305
598.10526   77.46053    76.00000   12.29747             8.07475
597.90299   575.44030   134.00000  16.55597             10.82381
606.20879   562.56593   182.00000  19.70469             11.88276
608.48438   292.31250   256.00000  23.24598             14.43721
605.93590   136.87821   156.00000  14.87745             13.44311
606.93220   572.65254   118.00000  15.39746             10.32183
607.05405   64.54054    148.00000  16.39756             11.60234
614.74679   1202.99038  312.00000  29.43326             13.87266
609.94149   1276.25000  188.00000  16.91829             14.27517
610.21318   519.82171   258.00000  23.36076             14.40770
614.33333   1367.09020  255.00000  21.69571             15.01633
612.50855   212.21795   234.00000  19.51570             15.30154
615.09705   274.06751   237.00000  20.66068             14.86427
611.34921   1380.76190  63.00000   9.25889              8.67320
617.66269   440.18507   335.00000  32.48846             13.60576
614.72973   118.63063   111.00000  13.17097             10.91337
617.41026   171.71154   156.00000  15.91116             12.55717
626.70539   486.32365   241.00000  19.14466             16.14902
627.90052   1243.76963  191.00000  19.29422             12.63929
631.74502   1175.23506  251.00000  23.97819             14.44038
631.12785   1355.31507  219.00000  18.61810             15.07638
630.56522   320.38164   207.00000  18.33315             14.41783
630.89706   395.48039   204.00000  17.09290             15.20740
631.93237   422.37681   207.00000  21.67600             12.83410
634.96273   1313.54348  322.00000  23.54462             18.00368
635.95858   176.67456   169.00000  15.91706             13.53767
638.81028   21.29249    253.00000  20.42502             15.83425
640.50000   362.44094   254.00000  20.09013             16.29792
639.57914   750.85252   278.00000  20.25107             17.49018
638.60335   591.09497   179.00000  15.92576             14.42140
643.94340   72.04403    159.00000  15.25227             13.28319
649.33659   105.80000   410.00000  25.85501             20.46228
645.82041   1186.11837  245.00000  19.41098             16.15461
648.04000   1387.53600  250.00000  19.63202             16.65008
647.96454   202.89362   141.00000  16.02936             11.33345
653.90500   282.74000   200.00000  19.42867             13.22803
658.76613   1400.15323  124.00000  15.68021             10.10156
661.15556   1294.77222  180.00000  17.80224             13.00242
662.11371   1248.21405  299.00000  20.97833             18.29121
664.21918   1169.61187  219.00000  19.66172             14.23130
667.28013   1442.44300  307.00000  27.36725             14.98555
661.78061   203.59694   196.00000  21.18487             12.07777
667.16268   171.49282   209.00000  17.95314             14.92171
667.34796   1341.95925  319.00000  26.86461             15.67348
671.68136   311.50169   295.00000  21.03435             18.43246
669.54651   117.76744   172.00000  16.18335             13.59169
669.68182   327.38636   176.00000  16.88952             13.32152
670.08475   594.29944   177.00000  18.84266             12.00814
672.04152   76.80969    289.00000  21.46111             17.24374
676.90706   1219.69145  269.00000  21.94694             15.88812
677.53405   431.80645   279.00000  23.42663             15.24594
681.90625   1151.28472  288.00000  31.70503             11.85879
679.02817   1285.93427  213.00000  19.27089             14.10113
683.54225   706.88380   284.00000  20.60313             17.66509
684.36364   332.55051   198.00000  17.61389             14.48226
684.58427   3.83146     89.00000   11.60980             9.94668
689.61789   409.38211   246.00000  19.26325             16.32778
690.81928   176.75904   166.00000  17.09194             12.40305
690.97633   1371.48521  169.00000  17.94375             12.04026
690.41414   137.98485   198.00000  17.94179             14.10318
694.09542   1330.61832  262.00000  21.82942             15.36800
694.86166   1233.72727  253.00000  20.76752             15.66561
695.36078   1466.03922  255.00000  22.08435             14.97376
701.58503   192.86054   294.00000  24.76710             15.13523
697.09735   692.15487   226.00000  18.21521             15.85967
699.96951   1411.34756  164.00000  15.68280             13.34367
701.03971   366.77256   277.00000  21.25175             16.73108
706.53275   1182.67249  229.00000  23.20144             12.72325
704.48889   1288.95873  315.00000  29.67980             13.83925
703.82759   649.13793   145.00000  14.51492             12.74738
705.69955   1201.12556  223.00000  20.96887             13.58745
707.29949   78.19797    197.00000  16.76743             15.00725
708.68639   115.28402   169.00000  15.41398             13.96934
714.52209   1452.89960  249.00000  21.33113             15.05101
714.17818   688.75636   275.00000  20.58146             17.04306
711.56771   1398.91667  192.00000  16.15683             15.28962
717.67136   639.88263   213.00000  18.46498             14.67799
717.63866   94.31092    119.00000  14.94404             10.14837
723.82745   1217.70980  255.00000  23.24145             14.52851
719.49444   1277.46111  180.00000  18.93333             12.16524
723.79152   1376.07067  283.00000  21.28930             16.97840
722.11921   128.83444   151.00000  15.94014             12.04302
722.75221   59.25664    113.00000  12.98409             11.20036
724.51685   393.22472   178.00000  17.38657             13.07696
728.65704   447.55596   277.00000  22.62927             15.65946
724.06306   1491.16216  111.00000  12.63590             11.21105
726.75490   334.59314   204.00000  17.78707             14.63579
729.29557   1342.30542  203.00000  20.69470             12.53534
734.23146   1151.82022  445.00000  27.19417             21.02522
736.74837   1176.32680  306.00000  24.58588             16.69808
733.98339   1298.62126  301.00000  26.75418             14.49025
734.05221   632.14859   249.00000  21.37936             14.85580
731.81503   1244.63584  173.00000  18.55151             11.93789
737.94924   81.34010    197.00000  17.70302             14.32049
736.05882   324.31373   153.00000  16.93623             11.64415
736.18943   135.34361   227.00000  25.46116             11.54408
740.65385   1493.57143  182.00000  16.25586             14.29942
739.64885   1535.47328  131.00000  13.84293             12.09408
741.33636   368.02727   220.00000  18.26897             15.47270
745.97143   1278.02449  245.00000  25.44436             12.75478
744.19095   305.65327   199.00000  17.42582             14.55002
744.56129   66.59355    155.00000  17.05405             11.67316
746.25000   9.25000     188.00000  17.15822             14.04324
747.60759   1304.25949  158.00000  17.88323             11.34013
748.92821   1526.85128  195.00000  24.35041             11.32529
750.88535   183.62420   157.00000  14.69906             13.62894
753.82659   287.22543   346.00000  27.67525             16.40951
754.40097   1406.11594  207.00000  21.16489             12.78753
751.49711   1254.54913  173.00000  19.12992             11.62499
755.43162   1469.43590  234.00000  21.76151             13.89357
759.86340   161.13918   388.00000  27.64783             18.08740
757.27602   341.89593   221.00000  19.18082             14.74022
760.01163   1325.39535  172.00000  17.91901             12.28864
758.88406   1378.50000  138.00000  15.06989             11.73570
762.94194   113.45806   310.00000  23.99122             16.80872
761.73563   376.53640   261.00000  20.98893             15.92979
762.78547   482.73356   289.00000  30.98662             12.51735
766.90667   81.28667    150.00000  15.63666             12.25999
772.94512   1195.76220  328.00000  25.02956             17.18713
772.27393   1228.33333  303.00000  22.15514             17.83848
766.29452   1532.71918  146.00000  13.96482             13.42376
769.48318   193.51376   327.00000  30.78191             13.84277
769.24000   1354.81714  175.00000  16.36156             13.71078
773.41479   403.24116   311.00000  27.15923             14.87153
773.05612   501.83163   196.00000  16.24761             15.46559
772.70642   519.79358   218.00000  20.01068             14.02253
773.40476   27.17857    168.00000  16.11696             13.33694
776.14563   1261.11165  206.00000  19.79766             13.28329
774.14110   1307.53374  163.00000  15.77936             13.15038
774.84810   95.06329    158.00000  15.51403             13.09346
774.27049   1365.77869  122.00000  14.31449             10.88058
776.90535   538.84774   243.00000  22.32331             14.15214
782.62185   1405.11765  238.00000  27.83048             11.04143
781.21739   1588.62451  253.00000  19.15702             17.12880
781.29714   49.49714    175.00000  17.25070             13.38466
780.75862   117.68276   145.00000  14.45529             12.88378
784.76238   1420.89604  202.00000  19.70731             13.09867
786.59563   1453.55191  183.00000  21.10682             11.02387
785.50532   289.34574   188.00000  16.27398             14.77093
792.18800   391.42400   250.00000  21.68809             15.27485
794.33555   467.01661   301.00000  23.78198             16.18170
790.77852   1613.14765  149.00000  14.38026             13.21660
792.00505   1684.44949  198.00000  16.99602             14.85088
793.88889   338.68889   270.00000  24.31909             14.31571
795.01010   1382.29293  198.00000  19.39614             13.30114
796.37572   1708.74566  173.00000  16.35496             13.57730
797.21212   266.29293   198.00000  22.54312             11.50221
798.38650   1491.00613  163.00000  20.16348             10.52140
800.59091   414.45804   286.00000  21.05667             17.48470
800.52074   174.36406   217.00000  17.78331             15.78031
803.78521   1434.20070  284.00000  20.93379             17.62359
806.70640   609.07267   344.00000  28.72317             16.65043
804.12803   124.77855   289.00000  30.06244             12.85771
803.66412   1413.74046  131.00000  13.67109             12.21769
807.04661   1565.11864  236.00000  19.07761             15.82280
811.09290   55.07650    183.00000  15.94668             14.69495
811.53879   1172.55603  232.00000  18.31975             16.12993
810.53872   1227.68350  297.00000  28.37118             13.46733
811.73180   1338.21073  261.00000  20.37208             16.51767
809.36538   1480.17308  104.00000  12.87849             10.56073
811.76552   1465.46207  145.00000  14.76130             12.58521
810.90355   1598.88832  197.00000  22.94194             11.32174
816.22530   511.43478   253.00000  21.47487             15.06787
815.34104   86.27457    346.00000  24.65137             18.14952
813.71008   541.26471   238.00000  20.59764             14.88648
817.31579   220.83684   190.00000  17.42543             13.93883
817.14410   340.17467   229.00000  17.73651             16.49195
819.79872   731.41214   313.00000  21.09088             19.07545
819.58654   1406.43750  208.00000  19.63708             13.53241
818.20787   1531.69101  178.00000  16.77347             13.67785
825.01887   290.53459   318.00000  26.02364             16.27292
823.07895   325.47807   228.00000  19.02673             15.38451
821.46465   661.21212   198.00000  21.77093             11.65471
821.20530   1289.03974  151.00000  14.93900             12.97249
827.56379   1234.44856  243.00000  24.84715             12.48510
824.79459   33.45405    185.00000  16.49379             14.39079
