# Filename: Nuclei_bidi_pfa_003.npz
# Voxel size (nm): (108, 108)
# Area quantity: voxels
# Num nuclei detected: 1085
Y           X           AREA       MAJOR_AXIS_LENGTH    MINOR_AXIS_LENGTH
30.99291    1120.99291  141.00000  15.59311             11.57777
94.69643    1319.44643  112.00000  13.35289             10.68550
117.86577   1182.79195  149.00000  17.79288             10.85674
139.95000   695.34643   280.00000  20.24989             17.67433
148.72031   712.49425   261.00000  19.58640             17.35261
162.90517   778.64655   232.00000  22.31623             13.48237
166.32971   729.30435   276.00000  24.55292             14.53101
175.84404   763.22936   218.00000  19.04822             14.76820
179.98745   836.43933   239.00000  18.38701             16.67555
184.30620   787.50388   258.00000  23.66911             14.06883
202.95669   845.98425   254.00000  20.43366             16.00020
207.47603   943.26712   292.00000  28.30884             13.18908
215.39200   908.19200   250.00000  22.26828             14.56857
216.52679   987.34375   224.00000  20.69758             13.88965
413.26636   740.71963   214.00000  18.28280             15.01216
427.88152   756.42180   211.00000  20.37880             13.26590
452.33168   741.11386   202.00000  18.19642             14.16983
468.42562   422.36364   242.00000  19.71740             15.70161
482.17647   307.86096   187.00000  17.43333             13.69955
487.01230   276.90984   244.00000  19.04765             16.36486
488.62544   388.00707   283.00000  24.49322             15.42288
499.71574   723.31472   197.00000  17.45344             14.46411
501.87838   501.13514   222.00000  23.57736             12.13339
500.59494   425.16456   237.00000  21.50842             14.05775
515.52000   454.07143   350.00000  28.19715             15.86546
512.11885   303.32377   244.00000  22.49921             13.89233
517.60619   724.11504   226.00000  17.28781             16.79326
519.52797   416.32867   286.00000  24.43133             14.99832
522.52448   367.64685   286.00000  24.01700             15.22984
527.13182   313.10455   220.00000  21.71931             13.02726
529.27338   290.53597   278.00000  22.69516             15.83552
529.19847   330.06870   262.00000  24.06723             13.95638
531.84252   937.66535   254.00000  19.76877             16.85555
537.51625   416.16245   277.00000  21.47685             16.66729
538.51883   908.40167   239.00000  18.06964             17.06465
543.15534   702.41748   206.00000  19.63016             13.42316
544.48858   959.15982   219.00000  18.85275             14.79783
549.86441   876.61582   354.00000  22.45071             20.15699
552.89394   245.71970   264.00000  26.17372             13.16270
556.08209   476.48507   268.00000  22.08141             15.51894
571.65957   508.81915   94.00000   12.01456             10.02956
572.30588   199.49412   85.00000   12.48277             8.82246
579.09524   250.29004   231.00000  18.42776             16.22516
577.16197   214.53521   142.00000  15.04735             12.03327
581.92245   498.48571   245.00000  22.57525             13.87251
584.38278   702.63636   209.00000  17.87874             15.08971
583.92350   520.22404   183.00000  17.81233             13.16350
589.88148   227.67778   270.00000  20.75078             16.65490
596.65421   548.84813   428.00000  26.88871             20.46527
595.50215   828.92704   233.00000  19.33601             15.45280
598.12239   977.37015   335.00000  24.85645             17.88853
598.63134   764.77419   217.00000  17.80732             15.65472
601.66553   677.02730   293.00000  21.04379             17.83883
606.03042   843.84791   263.00000  23.83435             14.32256
617.87025   572.92722   316.00000  21.81165             19.13177
617.80059   616.41935   341.00000  25.74697             17.01926
620.32308   643.43846   260.00000  21.53265             15.70200
621.25899   763.48561   278.00000  20.36984             17.78105
620.61889   817.64495   307.00000  21.91847             18.10669
621.05128   856.29060   234.00000  22.28294             13.46570
629.70290   979.02174   276.00000  27.47123             13.12035
638.50000   887.77640   322.00000  21.04809             19.55858
638.02564   657.90256   195.00000  17.21756             14.54712
639.09055   844.25591   254.00000  19.20707             16.92003
637.82609   620.24638   69.00000   10.30118             8.52083
660.08621   646.42529   174.00000  16.06953             13.78317
662.86920   905.61181   237.00000  17.60141             17.17260
666.21154   929.20385   260.00000  22.50223             14.77913
673.18000   140.85667   300.00000  32.43575             12.43791
679.27830   643.37264   212.00000  18.77330             14.52222
688.11765   133.65176   425.00000  36.21342             15.34937
689.71324   962.43015   272.00000  23.05642             15.09407
713.04981   961.87739   261.00000  22.84926             14.57622
719.41292   599.16011   356.00000  23.97498             18.92728
722.18085   267.54255   282.00000  25.49379             14.24942
729.98696   995.05217   230.00000  20.46760             14.40368
734.05199   316.50153   327.00000  31.41079             13.30784
752.65278   359.11458   288.00000  23.78526             15.61908
755.93522   1012.22267  247.00000  20.45184             15.86289
761.35345   1058.60632  348.00000  24.79379             18.00660
763.09191   538.60662   272.00000  18.73529             18.54474
770.77160   1409.59877  162.00000  17.13156             12.18735
772.72574   1371.70042  237.00000  19.91586             15.20748
772.74678   390.02575   233.00000  20.55933             14.52077
773.14583   1446.44271  192.00000  17.27673             14.25208
780.61224   1066.19898  196.00000  17.31768             14.43910
784.80745   1463.53106  322.00000  27.39266             15.45870
780.97516   1406.56522  161.00000  18.70774             11.13574
782.77778   943.70370   216.00000  18.66196             14.73907
783.90385   1098.25385  260.00000  20.59643             16.16907
787.60500   539.89500   200.00000  17.67691             14.43516
788.44000   466.50667   225.00000  19.33621             14.90918
799.50867   506.50867   173.00000  17.01608             13.10781
801.81407   1448.95477  199.00000  16.95949             15.01861
805.01887   450.57736   265.00000  25.78190             13.17831
807.93860   494.96491   228.00000  20.04827             14.57542
809.06512   924.72558   215.00000  18.75730             14.75656
820.74886   464.99543   219.00000  18.20606             15.31243
827.80541   1517.44865  185.00000  16.40320             14.47814
830.49785   500.40343   233.00000  21.19434             14.16240
832.07955   903.76894   264.00000  19.79829             17.30071
835.55939   778.86207   261.00000  19.63201             17.14714
838.05742   235.13397   209.00000  19.94401             13.48620
836.45306   572.17551   245.00000  23.13271             13.59016
846.14444   820.58148   270.00000  22.45760             15.42730
846.35565   347.25105   239.00000  19.99184             15.34993
842.85915   448.88732   71.00000   11.38627             7.97717
849.49609   1540.33984  256.00000  19.91088             16.56868
848.86528   549.47668   193.00000  17.09280             14.50079
854.98264   622.18403   288.00000  22.01437             16.65128
855.83193   900.14286   238.00000  20.50738             14.85549
851.63333   516.36667   30.00000   6.49102              5.79348
864.48641   835.69837   368.00000  23.81003             19.88265
860.15021   880.68670   233.00000  20.64250             14.47354
862.52646   360.86630   359.00000  23.90620             19.20064
861.16477   1562.05682  176.00000  16.93213             13.27330
862.06132   205.00943   212.00000  17.19522             15.78746
863.00847   582.83475   236.00000  19.61699             15.32551
865.39378   262.73057   193.00000  16.54478             14.95055
868.09052   631.68534   232.00000  20.81790             14.84412
873.09600   446.96800   250.00000  21.44606             14.84853
870.07006   568.85350   157.00000  15.57607             12.86960
871.22870   722.43049   223.00000  17.13293             16.70388
871.93284   913.00373   268.00000  20.93558             16.32559
874.81304   549.69130   230.00000  19.07290             15.38553
876.00000   811.34156   243.00000  20.82455             14.94552
878.17035   603.84543   317.00000  28.56616             14.35506
877.93569   768.93891   311.00000  22.95321             17.32742
880.14612   397.49772   219.00000  19.16451             14.61331
878.76860   850.82231   242.00000  22.06771             14.12757
878.42657   535.32168   143.00000  15.85313             11.49031
878.84211   795.26316   19.00000   5.73341              4.22275
885.25833   955.82500   360.00000  29.20254             15.98501
885.98598   719.54206   214.00000  19.75005             14.01992
890.25994   326.90826   327.00000  23.29907             18.15694
888.96476   628.77533   227.00000  18.38622             15.70910
895.07673   287.78005   391.00000  28.90304             17.35214
892.50270   429.21622   370.00000  27.23176             18.45541
894.13483   167.30337   178.00000  15.90051             14.27717
894.03000   656.05667   300.00000  26.13937             14.76123
897.49198   519.52406   187.00000  17.04706             14.69248
898.75833   674.30417   240.00000  19.87762             15.56916
901.14706   210.96078   204.00000  17.55031             14.83003
903.85253   957.86636   217.00000  19.72079             14.08812
904.47887   1016.30282  284.00000  22.79806             16.01626
907.42449   552.04898   245.00000  20.35673             15.50209
910.34021   811.98454   194.00000  18.86293             13.21138
915.48454   339.61856   388.00000  29.10496             17.25050
915.27957   207.54301   186.00000  16.26517             14.84010
914.99706   703.02647   340.00000  29.49921             15.21600
917.85638   515.52660   188.00000  18.34244             13.15297
921.52761   1434.73620  163.00000  15.32926             13.62913
923.58051   607.41102   236.00000  18.65130             16.20526
926.96333   402.47188   409.00000  28.76707             18.15368
926.57258   373.80242   248.00000  21.71479             14.64695
924.74742   624.87113   194.00000  16.01714             15.57621
927.89764   820.56299   254.00000  21.92430             14.82521
925.52332   568.21244   193.00000  19.72499             12.46830
928.32296   871.99222   257.00000  21.32879             15.38319
927.57416   1048.58373  209.00000  18.67640             14.26901
928.72481   968.51938   258.00000  21.31504             15.63495
930.33249   170.41814   397.00000  25.29115             20.15315
928.62437   490.76650   197.00000  16.36409             15.34279
929.57143   912.20000   210.00000  17.07886             15.70351
930.88442   698.18090   199.00000  17.34493             14.62441
929.94118   768.58824   221.00000  22.34844             12.61780
933.11374   556.82938   211.00000  19.02873             14.25570
935.87069   592.91810   232.00000  19.40162             15.31155
936.87124   452.24464   233.00000  21.73254             13.94846
938.48585   654.47170   212.00000  17.74992             15.27422
937.28230   1349.09569  209.00000  17.61286             15.23098
939.01299   219.59307   231.00000  18.24591             16.24973
936.96602   1320.44175  206.00000  20.40099             12.96742
938.12500   1385.63636  176.00000  18.32358             12.28705
938.05085   1074.84746  177.00000  19.51975             11.66920
938.72512   1258.68246  211.00000  23.67596             11.66195
946.46063   639.38189   254.00000  23.58558             13.88394
945.44783   1286.10000  230.00000  18.37529             15.99964
947.02186   231.55191   183.00000  17.27960             13.58916
947.96078   389.16863   255.00000  20.17243             16.19481
945.61502   466.59624   213.00000  16.91576             16.23867
944.93820   1093.91011  178.00000  17.71726             12.84910
947.21825   1120.48413  252.00000  19.56429             16.44121
947.47568   678.31351   185.00000  17.95210             13.52673
949.04564   263.77593   241.00000  22.61344             13.88016
949.51837   421.62857   245.00000  19.84393             15.87006
949.14634   1228.72764  246.00000  18.64389             16.87682
948.28931   1254.38994  159.00000  16.72983             12.23311
949.87578   782.77640   322.00000  27.12945             15.41926
950.48214   533.58929   112.00000  13.65437             10.52873
952.84091   321.10455   220.00000  21.01313             13.49664
954.16045   298.75746   268.00000  24.30756             14.09239
953.97768   1168.59375  224.00000  17.88665             16.11092
956.52113   719.97183   213.00000  18.12201             14.98435
952.33333   1242.19697  66.00000   9.24628              9.13792
958.25316   685.81013   237.00000  18.83858             16.35972
960.15385   133.37692   260.00000  19.62616             16.91542
961.82524   416.77670   206.00000  23.30043             11.50253
961.22624   170.44796   221.00000  17.85692             15.76054
962.50216   627.98701   231.00000  19.28677             15.32846
962.61860   1315.10698  215.00000  19.68262             14.06828
968.10849   519.16981   212.00000  17.77844             15.20284
969.95984   983.62651   249.00000  22.99852             14.01401
963.60000   441.52000   25.00000   6.77457              4.70093
975.44337   260.83373   415.00000  25.75152             22.56576
968.40415   495.94819   193.00000  17.86882             13.80986
969.20098   1347.81373  204.00000  18.24188             14.33743
970.33173   408.43269   208.00000  18.80237             14.19450
977.86058   554.54808   624.00000  31.60629             27.37961
971.80851   184.39894   188.00000  18.92452             12.72983
973.14815   1284.04762  189.00000  16.68999             14.50118
974.65426   149.65426   188.00000  18.06943             13.27492
979.40076   697.21374   262.00000  20.13495             16.60362
981.91845   234.12876   233.00000  19.96653             14.91162
982.44601   624.92488   213.00000  16.95759             16.19433
983.51073   472.46352   233.00000  19.65753             15.54933
982.83408   499.31390   223.00000  20.13417             14.34197
984.45701   995.90498   221.00000  17.50041             16.16559
985.11638   297.28017   232.00000  19.03988             15.58105
984.40161   1099.44980  249.00000  21.06507             15.19628
983.93082   196.08805   159.00000  15.64266             12.93767
988.01395   583.10233   215.00000  18.54854             14.85072
987.66946   721.45607   239.00000  20.32621             15.01726
988.07246   1315.73430  207.00000  18.05097             14.65026
989.43655   839.05584   197.00000  21.53626             11.79926
988.90367   1341.67431  218.00000  18.95250             14.71138
991.09170   867.20087   229.00000  20.14174             14.66815
996.12912   449.88736   364.00000  25.07735             18.80897
991.94855   1280.55949  311.00000  27.82534             14.48157
993.07107   1030.55330  197.00000  18.43944             13.73065
995.37828   403.03745   267.00000  22.19433             15.45970
996.61638   383.34052   232.00000  20.24339             14.70381
996.17431   1976.20183  109.00000  14.90087             10.17013
998.67254   160.34507   284.00000  21.96033             16.56176
998.79842   266.64822   253.00000  23.01752             14.70414
999.83254   573.52632   209.00000  18.38554             14.73401
998.69231   779.29231   260.00000  19.26532             17.34348
998.56444   1059.94222  225.00000  18.93346             15.17072
996.80447   1150.18994  179.00000  18.77600             12.18729
1000.29907  535.11215   214.00000  18.97786             14.49213
1004.13871  181.15806   310.00000  22.05666             18.18957
1002.36404  294.24123   228.00000  22.02975             13.25287
1001.61674  499.37445   227.00000  19.18588             15.08026
1003.12281  861.97807   228.00000  20.49151             14.26036
1005.95122  413.61382   246.00000  19.85275             15.93473
1006.83142  119.70881   261.00000  20.08092             16.58425
1009.76978  234.81295   278.00000  21.13270             17.01463
1008.73438  600.98828   256.00000  21.39543             15.54564
1009.14286  1035.52995  217.00000  22.46500             12.51420
1009.36224  793.12755   196.00000  17.53899             14.38478
1009.01304  1459.37391  230.00000  23.09670             12.78139
1012.38983  385.34746   236.00000  18.93753             16.01663
1009.81410  429.31410   156.00000  15.45842             12.88740
1012.62667  723.78333   300.00000  21.66736             17.96064
1010.46250  477.32500   160.00000  17.24014             11.91071
1012.89316  145.71795   234.00000  19.75664             15.11939
1012.97021  541.85106   235.00000  18.87442             15.89379
1011.83920  807.58291   199.00000  18.19486             14.05735
1010.94787  1151.95261  211.00000  20.06240             13.41708
1012.96407  1021.11976  167.00000  16.51161             12.95512
1014.20536  638.69643   224.00000  19.43044             14.71229
1015.22984  1377.70565  248.00000  19.82060             16.22849
1017.91827  466.97115   208.00000  17.61068             15.61476
1015.69828  964.37931   232.00000  18.95463             15.76108
1016.86939  1326.51020  245.00000  18.70379             16.80864
1016.96403  562.89928   139.00000  14.96398             12.16718
1021.65528  698.68012   322.00000  22.90411             18.22598
1020.49844  1110.42056  321.00000  21.32736             19.59454
1023.53906  771.08073   384.00000  24.00826             20.93083
1023.92881  738.97966   295.00000  21.08869             18.05396
1024.59244  981.26471   238.00000  19.76059             15.38609
1022.74537  432.04167   216.00000  19.00797             14.81749
1027.17972  570.88940   217.00000  18.75018             15.11170
1025.02167  1213.40867  323.00000  23.41540             18.02438
1024.69583  1394.94583  240.00000  19.24282             16.17158
1024.00000  1442.12963  216.00000  19.62023             14.34882
1025.49738  608.50785   191.00000  16.02404             15.20621
1027.00905  215.57466   221.00000  19.35899             14.67224
1023.41379  502.13793   29.00000   6.34106              5.82995
1027.98324  1024.54749  179.00000  20.77722             11.06500
1028.89732  1280.00446  224.00000  17.76994             16.16177
1032.21600  624.60800   250.00000  22.38546             14.43573
1032.88330  1075.39588  437.00000  27.27613             21.33092
1029.57459  1310.90608  181.00000  17.61025             13.14737
1031.09821  1419.71875  224.00000  23.64678             12.43480
1031.27136  1472.16583  199.00000  17.75229             14.37271
1033.08287  640.93370   181.00000  18.93555             12.69378
1034.26923  896.96703   182.00000  15.67746             14.79481
1036.79752  312.54545   242.00000  19.35671             15.95035
1035.45304  651.90608   181.00000  19.02783             12.48193
1037.91845  1039.18455  233.00000  17.76815             16.89560
1040.00472  183.44811   212.00000  17.72075             15.33670
1036.42647  502.05882   68.00000   10.52259             8.25785
1040.75688  1412.55963  218.00000  20.55352             13.64826
1042.33333  477.03268   153.00000  17.18518             11.75230
1041.95897  578.49744   195.00000  20.04288             12.50720
1048.50763  986.68321   262.00000  23.18181             14.61219
1044.00543  534.63587   184.00000  16.75718             14.25349
1046.88115  457.67623   244.00000  19.21967             16.29983
1046.13248  553.36325   234.00000  20.35204             14.71614
1047.91630  687.08370   227.00000  20.81430             13.95852
1046.74913  1218.15679  287.00000  22.39910             16.51149
1044.32955  2010.63636  88.00000   11.61267             9.98280
1049.73262  588.92513   187.00000  17.53473             13.82570
