# Filename: Nuclei_416_bidi_60x_019.npz
# Voxel size (nm): (108, 108)
# Area quantity: voxels
# Num nuclei detected: 888
Y           X           AREA       MAJOR_AXIS_LENGTH    MINOR_AXIS_LENGTH
5.10169     1037.01695  59.00000   8.98903              8.43581
8.04286     1184.92857  70.00000   9.83924              9.04551
16.76415    1263.89623  106.00000  12.64500             10.76438
30.28495    1293.33333  186.00000  18.39841             13.01166
35.52830    1402.96855  159.00000  16.12678             12.60924
37.90071    860.10638   141.00000  14.23081             12.64616
37.90984    1201.65574  122.00000  13.84763             11.29865
54.50435    907.33913   230.00000  19.20217             15.35357
54.45455    1258.14876  121.00000  16.54245             9.56456
53.17391    1372.56522  69.00000   11.25469             7.95078
56.83688    1002.82270  141.00000  15.73383             11.48420
58.20155    1651.49612  129.00000  15.79943             10.43803
64.04040    603.43434   99.00000   14.81098             9.40097
66.86709    808.08228   158.00000  15.97757             12.66200
71.35417    1399.99306  144.00000  16.12440             11.41132
70.88281    1674.07031  128.00000  14.67686             11.26015
73.43500    654.52500   200.00000  16.80041             15.33325
73.46847    1246.36036  111.00000  13.38261             10.66279
73.17213    1270.00820  122.00000  14.05590             11.22012
76.53254    1604.14793  169.00000  18.17223             11.93005
80.47170    982.21226   212.00000  21.11037             12.84287
80.59783    565.01812   276.00000  22.60031             15.66019
79.08609    1331.43709  151.00000  15.72698             12.29562
81.94012    820.38922   167.00000  16.13229             13.25109
89.83815    1286.28902  173.00000  19.55512             11.32305
93.31132    906.13208   212.00000  21.07370             13.11033
91.09160    1367.03817  131.00000  13.57444             12.38091
93.56693    1638.41732  127.00000  16.44247             9.81160
96.19890    810.02762   181.00000  17.18020             13.50985
98.69608    1192.15686  102.00000  15.23400             8.60088
102.42523   977.13084   214.00000  18.18206             15.01908
103.39655   1256.40517  116.00000  16.14443             9.92423
111.84012   550.48547   344.00000  21.42270             20.56763
112.55844   1184.86147  231.00000  22.42878             13.18465
112.41885   1603.10995  191.00000  19.05154             12.92536
115.24870   1127.48187  193.00000  15.83382             15.56417
117.44565   1222.83152  184.00000  16.63651             14.20453
117.78659   1159.62805  164.00000  15.60395             13.49304
118.82692   1362.46154  156.00000  16.86232             11.90906
121.16197   1348.88732  142.00000  18.45000             9.86899
124.27108   1245.40361  166.00000  19.53979             11.07933
126.06122   1275.68163  245.00000  20.06980             15.58947
126.91620   1417.17318  179.00000  16.25164             14.11392
129.62069   851.95402   174.00000  16.25952             13.66109
133.80872   909.88926   298.00000  21.70373             17.59210
131.46903   745.29204   113.00000  12.98379             11.11750
144.79487   760.06667   195.00000  23.96052             11.22271
137.62162   1055.37838  37.00000   7.63882              6.18516
142.53125   1233.12500  128.00000  16.32975             10.10315
145.52282   79.50622    241.00000  23.03933             13.45540
149.42000   835.11500   200.00000  18.30650             14.11943
148.76774   1560.59355  155.00000  19.59814             10.81070
150.77064   1196.05963  218.00000  22.73557             12.38499
150.46875   881.17969   128.00000  16.63404             9.93234
153.30519   166.43182   308.00000  21.59783             18.26415
155.26616   233.88973   263.00000  21.75597             15.51536
149.07143   1065.50000  42.00000   7.92772              7.09950
154.81000   292.83000   200.00000  20.32980             12.57534
152.16418   1047.43284  67.00000   10.77386             7.90350
154.47020   1307.68212  151.00000  16.57969             11.62833
151.93407   1184.95604  91.00000   11.95779             9.81750
168.55060   1136.25000  336.00000  39.31853             11.68080
163.61702   940.72695   282.00000  24.57731             14.78420
163.31159   260.19565   276.00000  19.40907             18.17205
160.38750   1511.38750  80.00000   11.20893             9.09697
164.07333   1177.46667  150.00000  16.24693             11.80678
166.28455   848.04472   246.00000  22.10742             14.37305
168.26168   1283.01869  214.00000  21.70754             12.62763
172.08738   489.75081   309.00000  22.81244             17.34193
168.87313   184.44030   134.00000  13.77859             12.41028
172.43210   905.95885   243.00000  21.56069             14.60843
173.83770   890.59162   191.00000  18.65589             13.07044
178.70746   985.63284   335.00000  23.90523             17.89685
176.68939   830.70076   264.00000  21.68073             15.71333
178.26506   210.21084   166.00000  16.85408             12.67512
180.03704   334.21759   216.00000  19.84850             13.93099
180.54545   360.39205   176.00000  20.59918             10.92118
182.11801   777.78261   161.00000  17.11895             12.01757
184.50192   305.68582   261.00000  22.44680             14.95902
186.88158   1234.00000  152.00000  18.73809             10.41390
191.64394   1352.18182  264.00000  26.28962             12.92385
191.50820   661.05246   305.00000  23.45473             16.63438
187.26667   1112.82667  150.00000  14.58173             13.19980
194.83007   1258.57516  153.00000  17.51422             11.22878
198.10132   1695.77974  227.00000  17.75316             16.40053
200.57460   473.96825   315.00000  22.33015             18.05219
204.62783   868.71845   309.00000  25.91106             15.30298
201.38378   1245.14054  185.00000  18.34967             13.05584
202.34066   361.18132   182.00000  20.56061             12.18626
204.58228   308.65190   158.00000  18.52356             10.87537
209.77949   1391.16410  195.00000  16.20042             15.49885
210.89175   710.29897   194.00000  16.71050             14.88262
211.77619   727.20000   210.00000  18.88850             14.37830
212.80000   898.64615   260.00000  21.58456             15.54405
210.40455   1082.85909  220.00000  19.54174             14.36861
214.58964   1311.22311  251.00000  24.73178             13.09678
212.66292   1181.03371  178.00000  17.40859             13.06868
216.18000   1222.92500  200.00000  17.50200             14.68712
217.64894   1658.51064  188.00000  18.46380             13.04034
217.99412   1059.48235  170.00000  14.83519             14.62009
216.39773   1242.64773  88.00000   12.11408             9.26409
225.10542   1100.69578  332.00000  22.93070             18.70878
220.22308   1791.57692  130.00000  15.55610             11.21578
226.39759   627.21084   166.00000  17.73029             12.03954
228.99454   835.79235   183.00000  16.26806             14.36502
229.70073   1150.47445  137.00000  13.46211             13.05406
234.47436   1187.07265  234.00000  21.25646             14.06697
235.38947   508.40702   285.00000  25.62564             14.62046
234.52577   209.88660   194.00000  20.73482             12.01697
235.01053   922.11053   190.00000  18.92096             12.94320
239.19634   484.91885   382.00000  23.82336             20.55812
236.95610   680.76098   205.00000  18.28595             14.32637
236.68778   886.11312   221.00000  17.98731             15.72314
235.37255   1115.74510  102.00000  13.61343             9.66713
236.13445   1741.24370  119.00000  15.24164             10.02849
235.63889   1053.55556  72.00000   11.32569             8.09895
244.09896   240.93229   192.00000  21.58746             11.54347
242.52632   1028.53289  152.00000  15.23408             12.77744
242.54676   608.02878   139.00000  15.10945             11.77738
245.56818   1107.51705  176.00000  16.82961             13.40128
247.74595   1632.15135  185.00000  22.23198             10.72479
249.76995   402.30986   213.00000  23.88117             11.45564
246.85535   1134.61006  159.00000  15.51359             13.08636
247.83333   1199.39706  204.00000  19.11101             13.79537
249.66887   831.98675   151.00000  19.11156             10.27491
249.87209   1068.55814  172.00000  18.29167             12.04956
250.08466   1345.97884  189.00000  19.45584             12.57925
254.66418   609.40299   268.00000  24.23701             14.36570
256.73822   1079.07853  191.00000  22.60323             10.98993
261.00741   567.48889   270.00000  21.89866             15.77814
265.46452   889.60000   310.00000  21.44762             18.58060
266.23469   1208.09694  196.00000  17.67490             14.40928
268.12287   1256.75427  293.00000  20.73643             18.11532
264.43066   298.58394   137.00000  14.11243             12.49847
269.37500   597.00833   240.00000  19.55057             15.74984
274.29457   859.95349   129.00000  15.44546             10.64214
273.64000   1395.81600  125.00000  13.93932             11.43503
273.90441   1930.62500  136.00000  14.78198             11.93277
277.53540   338.41150   226.00000  21.93190             13.15586
286.76923   916.84615   286.00000  26.32728             13.90956
282.00730   317.08029   137.00000  16.16546             10.89051
284.30093   1608.09259  216.00000  20.81951             13.37212
286.15809   851.88235   272.00000  23.29607             14.88864
284.90947   1307.48971  243.00000  18.74135             16.55478
285.44495   1327.16514  218.00000  19.83566             14.03819
291.63536   358.14365   181.00000  18.29033             12.69710
294.42857   590.73980   196.00000  16.90917             14.93171
295.00599   1374.49102  167.00000  15.51307             13.87331
294.78519   1163.95556  135.00000  18.12153             9.58836
296.85039   260.17323   127.00000  14.19692             11.48240
297.95758   520.89091   165.00000  17.21840             12.23352
295.63014   950.78082   73.00000   10.64591             8.86321
303.56338   1171.88263  213.00000  21.20921             12.84970
301.97872   1493.36702  188.00000  17.41553             13.80042
304.46835   1469.36709  237.00000  19.69672             15.38788
306.76531   722.48469   196.00000  18.39068             13.82396
306.13793   1597.20690  145.00000  15.48872             12.19129
309.40840   1309.24427  262.00000  23.00064             14.82891
309.54375   916.34375   160.00000  15.02536             13.58739
312.40102   1119.66497  197.00000  21.25137             11.92405
310.40453   1252.56958  309.00000  28.03503             14.17646
312.36050   844.34796   319.00000  24.20590             16.88170
313.22176   676.71130   239.00000  18.25948             16.72826
313.02907   1281.77907  172.00000  17.00012             12.98180
315.61290   1147.49194  248.00000  20.76879             15.40215
316.37113   1633.89691  194.00000  18.67035             14.56633
317.86124   1330.19139  209.00000  18.44574             14.49597
321.56471   318.31373   255.00000  22.78167             14.28878
318.57436   382.15897   195.00000  17.09473             14.56147
317.22667   407.24000   150.00000  14.78401             12.99266
327.50153   587.23547   327.00000  30.16868             14.58825
321.91749   653.66997   303.00000  23.16231             16.76096
325.83942   862.60219   274.00000  26.46586             13.49239
321.03721   1369.54419  215.00000  18.07324             15.18820
320.80214   620.28342   187.00000  19.89222             12.01393
321.89506   1576.27160  162.00000  18.10397             11.49883
324.52500   558.16250   240.00000  18.73220             16.43793
325.11588   1054.27039  233.00000  23.06718             12.89963
324.97717   1295.13242  219.00000  18.21499             15.49600
325.61932   427.25000   176.00000  18.31560             12.30086
329.06047   921.19535   215.00000  18.21605             15.37166
332.66304   297.98551   276.00000  26.45585             13.45335
333.92713   1161.77733  247.00000  22.82630             13.86081
337.72662   1415.73141  417.00000  27.48102             19.54906
339.06646   204.56962   316.00000  25.01350             16.16683
336.12500   412.61979   192.00000  18.88176             13.07031
338.66082   1654.16959  171.00000  18.40300             12.07722
342.91000   1385.47000  300.00000  22.12502             17.40018
344.75314   252.26778   239.00000  20.10804             15.24488
345.78723   392.79787   188.00000  17.41665             13.92248
346.06075   1081.08411  214.00000  19.88154             14.37517
348.04891   312.88043   184.00000  18.48037             12.73271
348.55102   448.21429   294.00000  25.51370             15.64757
347.67500   928.33750   80.00000   12.11888             8.56856
353.82051   1212.08791  273.00000  22.17654             15.97210
357.43388   1311.26033  242.00000  18.38167             16.90326
360.90370   817.78889   270.00000  20.47885             17.12589
365.87970   1087.55263  266.00000  22.28366             15.25833
367.02174   1185.06957  230.00000  19.90793             14.84668
361.88333   343.95000   60.00000   11.29240             7.35463
370.25275   1345.30037  273.00000  27.89706             12.84705
365.87013   1143.11688  154.00000  16.96526             11.65312
369.96875   313.35938   192.00000  17.53110             13.97600
370.29358   368.99541   218.00000  18.97434             14.72154
372.66837   245.15816   196.00000  18.13238             13.81495
375.58333   517.32812   192.00000  22.48695             11.02663
380.11327   1282.68932  309.00000  27.18467             14.87492
377.05556   1136.67284  162.00000  19.48617             10.75697
378.40945   814.71654   127.00000  13.27278             12.22457
387.15415   801.29644   253.00000  23.03094             14.13748
384.33766   1108.26623  154.00000  16.55672             11.87849
385.15761   190.58696   184.00000  19.49299             12.08414
393.40116   1099.40116  172.00000  17.73054             12.43828
400.50182   303.10545   275.00000  23.76232             14.83741
396.29167   1300.75000  240.00000  23.30029             13.22379
402.98745   1161.00418  239.00000  28.08080             11.13258
397.24590   895.50820   61.00000   9.94889              7.98679
399.71939   1319.18367  196.00000  16.96717             14.73677
402.93993   272.06360   283.00000  23.22607             15.69192
405.68613   170.57664   137.00000  14.69602             12.04216
413.74222   1077.04444  225.00000  19.02129             15.29249
422.46726   1096.19048  336.00000  25.63756             17.24678
422.96283   1346.34944  269.00000  20.14979             17.19111
421.97600   177.92000   125.00000  14.91170             10.69100
426.15000   854.72500   40.00000   7.96438              6.40302
435.46119   299.56164   219.00000  17.02398             16.41801
436.39024   1265.05285  246.00000  20.59280             15.40114
436.42105   1618.72932  133.00000  15.69137             10.85782
438.10440   1161.29670  182.00000  17.28783             13.46174
447.23507   805.55597   268.00000  26.35520             13.19851
446.01777   1357.52030  394.00000  26.55342             19.09688
445.31492   1112.71823  181.00000  18.29288             12.65673
448.60455   1178.24545  220.00000  23.72790             11.90237
444.91935   853.59677   62.00000   9.92189              7.93597
446.85393   888.89888   89.00000   12.25455             9.24910
455.71023   1229.99716  352.00000  23.47364             19.54852
462.61303   1074.90421  261.00000  24.70435             13.57690
465.47449   1216.11224  196.00000  21.36108             12.00264
469.52632   972.79224   361.00000  30.04041             15.50254
466.34463   797.49153   177.00000  17.94917             12.64975
465.76296   1129.66296  270.00000  22.23566             15.95131
467.02415   1175.29469  207.00000  18.43936             14.49177
468.93478   1594.70109  184.00000  18.14461             13.02061
470.10965   306.05702   228.00000  19.03125             15.39044
473.65868   1382.68563  334.00000  23.83182             17.95404
479.40000   823.44615   65.00000   10.73837             7.80065
487.21610   1247.19915  236.00000  27.27514             11.24338
482.01429   632.90000   70.00000   9.93564              9.01300
492.57692   1090.55556  234.00000  28.59283             10.57079
494.16498   209.29966   297.00000  23.27851             16.32734
494.91342   1047.94805  231.00000  18.85608             15.90963
500.91860   301.89147   258.00000  22.55265             14.65833
498.76995   1135.15962  213.00000  17.88752             15.23719
494.87037   819.14815   54.00000   9.45679              7.28424
498.47222   827.57407   108.00000  12.73072             10.85489
501.82716   640.45679   81.00000   10.40245             9.89686
501.19481   660.90909   77.00000   10.42169             9.47175
501.37681   650.44928   69.00000   10.64979             8.23087
509.81452   1592.82661  248.00000  24.88721             12.74749
510.86861   672.61314   137.00000  14.59011             12.07964
518.85714   1086.40729  329.00000  22.22342             19.28358
527.73864   1218.92803  264.00000  20.63251             16.35690
531.50670   1011.61394  373.00000  27.74182             17.28133
529.73874   205.73874   222.00000  20.41686             13.92367
532.35119   1672.80952  168.00000  16.67298             12.87044
532.57143   1264.02857  70.00000   9.77394              9.23524
541.96970   1343.09470  264.00000  24.02960             14.28484
542.02469   1287.44033  243.00000  18.02989             17.23740
542.70370   1072.51389  216.00000  17.71391             15.70310
544.58296   1256.63229  223.00000  19.35259             15.78817
543.42424   1812.77778  99.00000   13.08940             9.90601
549.49660   1321.14512  441.00000  32.71811             17.53209
557.52303   1049.34868  304.00000  21.18955             18.46467
560.72761   961.01119   268.00000  23.47822             14.65430
558.19212   1269.44335  203.00000  16.78584             15.50648
558.88333   1582.62222  180.00000  16.70674             13.76893
560.67514   1208.21469  354.00000  30.40207             15.22338
563.80074   184.61993   271.00000  19.88942             17.35380
571.02319   1238.24928  345.00000  28.40151             15.68246
574.66667   1076.23377  231.00000  25.06993             12.15975
567.29787   1173.61702  47.00000   8.93535              6.66282
577.11111   742.36364   99.00000   12.92429             9.82385
582.21711   1284.65132  304.00000  23.19918             16.71884
589.52688   939.47849   372.00000  30.62100             15.55745
586.58099   1004.73944  284.00000  21.68981             16.78934
584.90335   1202.91822  269.00000  22.59413             15.24422
591.42918   187.77682   233.00000  18.94297             15.70090
589.42328   1358.50794  189.00000  16.90957             14.34211
598.84252   1065.73228  254.00000  24.72490             13.76239
597.00356   1122.12456  281.00000  21.24907             17.17363
597.63694   1593.24204  157.00000  17.13839             11.82867
600.47802   989.67033   364.00000  21.94560             21.63295
602.27324   1160.25634  355.00000  26.34168             17.56131
600.59394   1791.77576  165.00000  16.84368             12.57507
609.05093   1280.90509  432.00000  34.40630             17.00061
610.38117   1375.37220  223.00000  17.76393             16.08638
615.76963   1087.25131  191.00000  19.60472             12.50149
613.72059   1765.40196  204.00000  19.02729             13.67446
615.75316   1314.91139  158.00000  16.66842             12.07780
622.46154   961.46439   351.00000  23.52238             19.75862
620.02410   183.58434   166.00000  16.74357             12.62479
624.82528   1389.13755  269.00000  22.14899             15.78830
622.80905   1172.39698  199.00000  20.49465             12.41898
627.33591   1434.35135  259.00000  22.41250             14.76193
631.73016   1358.60847  189.00000  16.62563             14.49292
