# Filename: Nuclei_416_ctrl_006.npz
# Voxel size (nm): (108, 108)
# Area quantity: voxels
# Num nuclei detected: 917
Y           X           AREA       MAJOR_AXIS_LENGTH    MINOR_AXIS_LENGTH
141.86076   546.19831   237.00000  19.45856             15.55400
142.02762   1548.74033  181.00000  16.22433             14.75211
152.83446   592.59797   296.00000  22.62993             16.74280
157.17500   1718.65000  160.00000  19.07332             11.14263
164.70563   1557.14719  231.00000  19.42263             15.30661
166.76226   1509.69434  265.00000  19.08150             17.95222
187.86711   664.44850   301.00000  23.53650             16.45472
193.50691   1523.31336  217.00000  17.83714             15.54144
198.31944   1614.84259  216.00000  18.17389             15.19426
205.33962   626.27547   265.00000  22.81836             14.82192
227.35329   1527.08383  167.00000  15.76922             13.77842
237.24658   579.25342   292.00000  20.11923             18.52092
247.80602   710.68227   299.00000  23.87470             16.20548
250.35636   877.84364   275.00000  25.14097             14.09718
256.62626   1723.60606  99.00000   12.36248             10.25861
269.98281   400.44986   349.00000  21.62929             20.91084
271.70053   460.41711   374.00000  25.94486             18.44065
291.38832   840.28179   291.00000  21.15518             17.87986
296.31507   677.65753   292.00000  24.36041             15.39734
295.72768   422.22321   224.00000  18.41525             15.51389
298.53962   600.01887   265.00000  19.68759             17.40457
301.83601   534.28296   311.00000  21.32379             18.70045
310.76558   657.01484   337.00000  26.84171             16.04498
314.05703   439.77186   263.00000  20.12287             16.96773
321.22093   1817.34884  172.00000  16.91972             12.94423
328.76254   866.59532   299.00000  26.56266             14.51788
325.64000   1841.12889  225.00000  18.82514             15.32244
336.89407   980.65254   236.00000  19.12959             15.89846
337.74009   628.37885   227.00000  19.70408             14.87398
342.83072   588.12853   319.00000  24.37003             16.80087
343.01976   193.99605   253.00000  22.79723             14.26108
346.83505   171.26117   291.00000  21.20566             17.66535
359.32581   622.25484   310.00000  26.11628             15.21636
359.91484   705.28022   364.00000  38.75930             12.27673
360.72574   1844.62025  237.00000  19.57852             15.66116
376.94000   1034.13600  250.00000  19.09384             16.75995
383.49785   575.09442   233.00000  21.02575             14.43019
389.37500   604.51894   264.00000  18.89166             18.13588
392.86017   689.95763   236.00000  22.49199             13.40905
390.25543   1846.47283  184.00000  17.57362             13.38815
398.92593   662.77407   270.00000  24.51183             14.35783
401.26641   759.22780   259.00000  27.86347             11.97846
401.63793   1068.32759  232.00000  20.24480             14.84131
414.03125   1098.42578  256.00000  19.74992             16.88822
418.05306   1278.87755  245.00000  22.08931             14.17579
421.98655   1230.90583  223.00000  19.77596             14.82014
422.79286   453.35000   280.00000  19.90023             18.36666
421.27852   661.67450   298.00000  22.59464             16.87048
424.89597   695.69799   298.00000  23.43777             16.68555
421.76154   1166.35769  260.00000  21.46807             15.46745
421.71493   1210.25792  221.00000  17.68263             15.96038
436.85673   719.79825   342.00000  25.16663             18.10819
447.04717   328.09748   318.00000  32.79522             12.67331
446.45703   533.09375   256.00000  27.76707             12.11175
451.87500   464.78261   368.00000  25.22798             18.80389
454.68679   657.74340   265.00000  22.21329             15.41793
463.61739   195.78551   345.00000  27.25469             16.21681
465.72789   640.35374   147.00000  19.06546             9.87067
472.08040   847.34673   199.00000  20.70654             12.35675
475.93391   1432.51724  348.00000  24.66950             18.26204
474.24211   1516.44912  285.00000  21.60347             16.88689
479.22819   223.05705   298.00000  28.92211             13.16273
482.27234   546.57872   235.00000  27.05869             11.16248
478.92222   1777.88333  180.00000  15.43849             14.91325
486.75397   791.88889   252.00000  28.67156             11.45930
491.72034   500.90254   236.00000  21.68180             14.18598
494.62353   720.58039   255.00000  21.33900             15.51576
491.89143   1761.82857  175.00000  15.91329             14.21488
496.06130   844.72797   261.00000  28.80809             11.73622
496.90074   204.23897   272.00000  27.11991             13.24535
493.84431   1487.22754  167.00000  18.74817             11.76451
499.70088   695.77713   341.00000  22.63007             19.70813
501.82836   531.00000   268.00000  19.59336             17.65639
502.60163   991.86179   246.00000  22.21599             14.33609
503.51311   900.01873   267.00000  20.05135             17.23386
501.84615   971.33333   39.00000   7.61332              6.73178
506.35714   1996.75000  112.00000  12.85621             11.26143
509.06757   951.80405   148.00000  14.18599             13.36049
509.07027   1559.07568  185.00000  19.87881             12.05360
514.78102   931.72628   274.00000  25.66720             14.22098
519.92308   1586.15934  182.00000  17.72587             13.16406
521.35676   529.84865   185.00000  19.63477             12.05606
526.81754   1494.79649  285.00000  21.54535             17.01369
530.82721   845.62868   272.00000  30.50653             11.94929
530.11590   749.40431   371.00000  24.34883             19.50139
535.31203   12.48872    266.00000  23.65716             14.49542
541.10606   1363.26768  198.00000  18.26004             14.01702
546.56502   519.13901   223.00000  25.02164             11.46324
546.90640   488.01478   203.00000  25.63125             10.34950
547.87454   1633.67159  271.00000  28.12047             12.62105
561.88270   636.97067   341.00000  26.00785             17.09873
554.88686   942.11314   274.00000  31.90771             11.25157
558.21951   539.86341   205.00000  19.22566             13.70764
559.25683   1356.51366  183.00000  16.54478             14.11850
562.53750   562.57917   240.00000  21.19100             14.44594
559.32727   781.90909   55.00000   9.58212              7.49367
567.24868   795.31217   189.00000  23.79584             10.47915
569.17788   777.02885   208.00000  18.07116             14.87092
569.44340   1503.68553  318.00000  22.04871             18.44099
570.76628   943.00000   261.00000  20.90173             15.98486
567.30366   526.34555   191.00000  19.01754             13.02172
569.20635   867.77778   126.00000  14.51208             11.06365
573.78049   1422.79094  287.00000  23.27570             15.73799
569.82609   1466.00000  69.00000   9.89516              8.87476
572.48235   433.53725   255.00000  26.79190             12.30981
573.15432   1326.00617  162.00000  14.90636             13.93588
573.44615   452.52308   65.00000   10.91567             7.52796
575.34014   511.72109   147.00000  15.26073             12.32169
580.27757   1380.58935  263.00000  21.03523             16.07040
580.16931   1541.08995  189.00000  16.94656             14.22918
580.17857   1969.21429  112.00000  14.42426             9.90578
582.04819   801.09639   83.00000   12.58338             8.57724
588.52800   1428.14400  250.00000  23.45266             13.67262
586.46108   518.21557   167.00000  15.36660             13.86714
586.81373   1567.47059  204.00000  17.28662             15.08589
594.51418   1278.44326  282.00000  22.59236             16.05660
593.33023   929.90233   215.00000  18.40260             15.24696
597.56989   1460.38351  279.00000  27.77989             14.21887
598.11382   456.08943   246.00000  21.04470             14.92654
599.59866   848.21070   299.00000  21.39971             17.90599
600.53953   1327.28837  215.00000  20.49804             13.62762
604.78795   1398.83929  448.00000  27.88928             20.80054
603.57738   939.30357   168.00000  16.44023             13.10965
603.81208   532.10067   149.00000  15.42886             12.40649
603.92126   545.44094   127.00000  14.13733             11.41403
609.60616   1475.37671  292.00000  21.52138             17.38118
609.63603   1523.73162  272.00000  23.32150             15.03761
608.42688   1796.22134  253.00000  22.35977             14.80070
606.76684   910.58549   193.00000  22.34933             11.09999
609.58824   1993.62745  153.00000  14.92940             13.29196
612.75152   517.27273   165.00000  17.14121             12.30525
614.13187   731.86538   364.00000  28.63715             16.45387
617.27609   783.62963   297.00000  24.15647             15.72277
624.54369   1425.45307  309.00000  24.23047             16.37514
623.80303   6.48485     198.00000  17.07688             14.89622
633.10000   895.55714   280.00000  28.30950             12.86257
629.07104   522.61202   183.00000  18.23947             12.77472
628.84211   1566.83684  190.00000  19.14513             12.66439
638.85085   493.66102   295.00000  35.69320             11.22245
632.08824   1516.71849  238.00000  19.59366             15.57978
633.05128   542.03846   156.00000  17.65066             11.24911
634.06329   920.30380   237.00000  19.61707             15.58944
637.41250   650.82083   240.00000  22.86338             13.41752
637.35776   1455.01724  232.00000  19.86075             14.89670
648.96935   429.44828   261.00000  50.23477             9.04035
642.82273   991.03182   220.00000  21.51537             13.12828
645.68889   460.72778   180.00000  21.09389             10.97280
645.88846   801.81154   260.00000  24.43656             13.66391
643.60791   1261.45683  278.00000  23.21221             15.94862
646.83478   1434.66957  115.00000  14.45304             10.43009
652.56303   1364.85294  238.00000  18.87606             16.25090
653.33051   1739.17797  236.00000  19.11003             15.80848
654.41048   1210.00437  229.00000  20.49587             14.30791
653.33333   1601.60109  183.00000  15.67055             14.94875
653.50000   519.75714   70.00000   11.91777             7.60415
655.75000   1511.74390  164.00000  17.49120             12.08138
661.88184   1442.55331  347.00000  26.66577             17.53020
654.77273   1976.75455  110.00000  14.24190             10.29897
661.27626   574.81712   257.00000  27.21877             12.15132
656.30380   1491.11392  79.00000   11.89881             8.46286
654.86047   1498.41860  43.00000   8.96647              6.08649
658.25735   544.28676   136.00000  14.40535             12.06813
661.03237   920.74460   278.00000  23.15931             15.50387
664.15616   997.95195   333.00000  33.27380             13.14213
665.22553   472.88936   235.00000  22.81457             13.26203
665.80000   1331.90625  320.00000  27.63462             15.94199
664.21212   648.97475   198.00000  18.27475             13.90046
667.64359   946.55128   390.00000  25.21032             19.96936
663.32903   724.25806   155.00000  15.58088             12.67406
666.37368   980.48947   190.00000  19.57245             12.44393
667.88176   743.53716   296.00000  27.60171             13.85280
668.63710   800.69355   124.00000  16.68970             9.68066
679.09496   1136.76558  337.00000  33.90736             13.00754
677.30275   396.70336   327.00000  26.71257             15.75631
676.69634   1070.27225  382.00000  29.99753             17.65818
679.58147   848.26518   313.00000  24.65161             16.32419
678.89384   888.33219   292.00000  20.63619             18.27444
675.49107   1498.08036  112.00000  13.62471             10.56165
674.69388   1476.06122  49.00000   8.35778              7.43519
674.87719   1514.19298  57.00000   9.38757              7.73358
678.87975   557.84810   158.00000  15.99414             12.67678
680.14881   1458.39286  168.00000  17.82981             12.06877
677.77551   525.55102   49.00000   8.33344              7.53710
681.79452   1349.14384  146.00000  15.63171             12.12771
687.11200   687.62133   375.00000  24.53776             19.53679
687.70227   1361.17476  309.00000  30.59813             13.57311
682.72903   1438.05161  155.00000  16.89992             11.78467
685.83221   871.85235   298.00000  20.59344             18.53195
683.06569   509.88321   137.00000  14.00761             12.45589
684.48077   1372.99038  104.00000  14.01635             9.63945
687.32487   1424.64975  197.00000  21.23972             12.02217
688.60169   1485.16102  118.00000  16.80055             9.30511
687.82039   991.47573   206.00000  21.14064             12.54910
689.61538   1577.58333  156.00000  14.84279             13.41577
697.09610   1513.23377  385.00000  30.77728             16.53322
698.14786   1068.70039  257.00000  20.96862             15.69734
694.30657   1383.06569  137.00000  14.06544             12.71154
696.15172   537.27586   145.00000  14.25455             13.01118
701.09125   209.63118   263.00000  19.58252             17.18017
699.63137   931.56863   255.00000  21.60282             15.03388
700.13364   1344.04608  217.00000  21.07269             13.42430
698.92857   1542.95238  42.00000   7.77423              6.81843
706.04878   504.64329   328.00000  22.95661             18.38194
708.10101   872.70034   297.00000  23.66193             16.15147
706.91011   1463.78652  178.00000  18.66054             12.29799
709.79381   1372.56701  97.00000   13.68274             9.30301
711.84986   998.49008   353.00000  24.22458             18.82957
714.22699   365.19018   163.00000  23.13290             9.24144
710.04032   541.16935   124.00000  13.51759             11.75075
707.63889   1412.52778  72.00000   11.06590             8.29340
713.26020   488.51020   196.00000  19.93617             12.74534
708.94595   558.67568   37.00000   7.64668              6.12603
722.53659   738.08537   246.00000  31.68312             10.59726
720.21967   1097.45574  305.00000  25.28894             15.81017
712.00000   1361.10714  84.00000   11.63981             9.50928
713.52308   524.95385   65.00000   11.36908             7.32498
718.52778   1595.13426  216.00000  19.59478             14.36441
717.39344   1483.61475  122.00000  15.70265             9.96971
721.40936   1547.26901  171.00000  16.37760             13.48791
718.67241   400.34483   58.00000   10.15190             7.65250
720.85965   1366.89474  57.00000   11.00580             6.59034
720.80303   1381.27273  66.00000   11.39776             7.36340
722.36264   1524.15385  91.00000   13.24047             8.89305
721.83486   548.58716   109.00000  12.72327             10.93522
722.43956   657.68132   91.00000   12.48195             9.33921
725.61975   940.90370   405.00000  28.27994             18.27838
724.43885   1394.30216  139.00000  16.51154             10.83059
720.76471   1532.49020  51.00000   8.21922              7.97227
727.67544   897.62719   228.00000  20.85739             14.20676
728.32804   482.24339   189.00000  19.86317             12.16430
729.05031   496.39623   159.00000  21.57251             9.83379
734.70588   1042.71569  306.00000  29.15871             13.94131
730.85714   534.80952   84.00000   12.97983             8.38069
733.58333   1527.99167  120.00000  18.33263             8.49721
735.85027   1510.01604  187.00000  21.16354             11.40403
731.77500   1502.17500  40.00000   8.78777              5.92243
735.59000   527.26000   100.00000  12.93666             10.05144
736.20000   513.45714   70.00000   11.28943             7.98531
741.36782   467.88889   261.00000  26.70049             12.85349
741.90556   962.51111   360.00000  26.55438             18.06557
740.47210   1481.49785  233.00000  18.88991             16.16652
739.41667   1425.72917  48.00000   9.19754              6.66738
744.21845   1593.47573  206.00000  17.76868             14.81426
746.58947   850.79211   380.00000  29.44942             17.22534
741.00000   565.75610   41.00000   7.23137              7.16525
741.12821   573.74359   39.00000   8.27030              5.97688
752.94035   442.07018   285.00000  28.78618             12.99146
747.21466   601.54450   191.00000  19.10123             12.84655
750.40520   983.74349   269.00000  24.38129             14.36640
747.90777   1432.79126  206.00000  19.20123             13.76198
742.85366   1659.48780  41.00000   7.40453              7.14646
750.21893   585.36095   169.00000  16.72907             13.16204
751.81982   649.97748   222.00000  23.55723             12.20795
751.00318   742.16242   314.00000  24.52433             16.63454
753.53472   521.32639   144.00000  19.54606             9.42249
752.97297   530.94595   37.00000   7.10013              6.65074
761.27675   1023.80812  271.00000  21.14407             16.38285
759.10314   1665.93722  223.00000  20.00815             14.29027
761.93624   687.87584   298.00000  23.83731             16.28133
761.31416   1463.33628  226.00000  20.27169             14.63802
762.56311   1605.38350  206.00000  20.13720             13.07924
764.19858   599.64539   141.00000  16.79310             10.89218
764.57143   928.15444   259.00000  21.73039             15.62367
764.71552   1644.19828  232.00000  18.70862             16.06221
766.45763   501.26695   236.00000  17.87824             16.88284
765.78736   618.52299   174.00000  19.29502             11.60183
767.72372   877.14670   409.00000  36.25219             14.82244
767.42771   586.31928   166.00000  21.09106             10.12487
773.67760   731.14481   366.00000  31.37143             15.02853
770.84646   1091.22835  254.00000  22.61326             14.50047
773.25743   195.13201   303.00000  21.82657             17.94871
774.53727   858.80435   322.00000  21.12980             19.56489
777.53036   1038.12146  247.00000  19.39003             16.47826
774.69388   630.84694   98.00000   13.49389             9.96524
778.46237   1172.79032  372.00000  29.90421             17.03194
773.28261   1445.10870  46.00000   8.66545              6.77332
782.59386   1060.99317  293.00000  27.14278             14.38483
779.89157   1228.01606  249.00000  20.98251             15.20172
774.94737   1574.33684  95.00000   12.77929             9.46843
778.53333   605.05333   75.00000   10.46586             9.08639
787.27476   1534.68690  313.00000  29.57464             13.62795
786.36709   708.97785   316.00000  30.92004             13.63224
782.52564   1434.84615  78.00000   12.85717             7.73578
787.57143   670.33163   196.00000  20.69995             12.20394
787.59740   1215.57576  231.00000  20.59243             14.37599
791.08072   584.83408   223.00000  20.48375             14.01973
796.67100   1447.76623  231.00000  29.77614             11.40461
791.07570   916.17928   251.00000  27.50049             11.71889
796.35714   806.31746   252.00000  23.38654             13.92567
788.80000   523.63636   55.00000   10.11220             6.94959
795.14228   1653.71138  246.00000  18.11644             17.58116
794.07910   1677.09040  177.00000  16.55378             13.60630
797.89338   419.82353   272.00000  20.49386             17.06297
799.40072   899.78339   277.00000  22.84714             15.96483
798.86047   1107.27519  258.00000  20.75997             16.04054
800.29286   275.17857   280.00000  22.58388             15.95619
794.68254   480.46032   63.00000   9.79356              8.21366
803.86129   490.82581   310.00000  27.54719             14.54862
801.56287   547.31737   167.00000  19.37173             11.01530
801.39459   634.25405   185.00000  16.77354             14.14099
801.58571   1424.45714  140.00000  16.66151             10.82676
804.02857   1637.26667  210.00000  21.73036             12.48285
804.13806   520.70149   268.00000  23.26215             16.79752
805.79412   596.25490   204.00000  16.97700             15.45470
803.24242   672.58586   99.00000   11.80211             10.69955
