# Filename: Nuclei_416_ctrl_60x_008.npz
# Voxel size (nm): (108, 108)
# Area quantity: voxels
# Num nuclei detected: 516
Y           X           AREA       MAJOR_AXIS_LENGTH    MINOR_AXIS_LENGTH
7.46774     340.76344   186.00000  16.63139             14.34561
30.93252    305.46626   163.00000  17.35879             12.07358
41.60068    176.62116   293.00000  21.57374             17.41226
42.45525    218.95720   257.00000  19.81663             16.65309
42.68462    291.61538   130.00000  15.09034             11.01957
48.60135    282.87162   148.00000  17.01179             11.14563
56.67550    227.68212   151.00000  16.63966             11.86593
58.89189    303.05946   185.00000  18.06402             13.31283
64.34675    265.21053   323.00000  31.60733             13.40405
72.38956    138.33333   249.00000  22.65693             14.26709
83.28467    343.84672   137.00000  14.67827             12.14451
87.75120    364.42584   209.00000  19.36472             13.80610
94.84146    436.94309   246.00000  19.22759             16.47641
94.65174    411.66667   201.00000  17.96850             14.91407
96.58065    341.48925   186.00000  20.13635             12.15013
103.74742   452.78866   194.00000  22.87623             11.06934
104.29710   405.05797   138.00000  17.23437             10.29719
112.14108   373.07469   241.00000  19.59235             15.93340
175.64762   1638.87619  105.00000  12.91232             10.45407
205.70443   1617.84729  203.00000  18.47781             14.04467
225.64062   1594.02083  192.00000  18.51327             13.28918
293.64286   1547.98052  154.00000  15.51623             12.74341
341.20245   1508.75460  163.00000  17.23581             12.06962
359.37209   1189.44651  215.00000  20.38463             13.57875
378.92857   1206.05714  210.00000  23.08063             12.11171
382.26786   1262.43571  280.00000  23.82553             15.24613
395.96129   1218.17419  155.00000  21.49222             9.28548
393.82667   1454.92000  75.00000   10.43913             9.18485
409.58824   1209.62745  153.00000  17.30314             11.33137
414.81325   1291.53614  166.00000  19.84074             10.82755
421.63158   1446.87368  95.00000   17.87906             7.18600
422.30841   1459.96262  107.00000  14.80683             9.26850
447.71812   1324.08725  149.00000  16.25101             11.90856
447.14504   1312.51145  131.00000  16.17770             10.91906
448.55862   1873.66207  145.00000  15.65404             11.90045
454.84354   1405.59864  147.00000  20.81543             9.70835
459.65865   997.85096   208.00000  16.75171             15.89167
466.88462   1881.87500  104.00000  11.70147             11.52910
481.11881   1231.94059  202.00000  19.24675             13.38438
491.19886   1372.18750  176.00000  18.15366             12.60499
498.96135   1339.81159  207.00000  22.01752             12.16192
502.15226   1005.94239  243.00000  18.35189             17.18174
501.44505   1429.24176  182.00000  16.17237             14.43206
504.88718   1238.62564  195.00000  18.80201             13.30886
505.92553   1362.31915  94.00000   12.11356             9.97713
511.74661   583.53846   221.00000  22.59685             12.49890
513.85494   1398.59568  324.00000  25.75637             16.20022
532.90394   443.32759   406.00000  25.04946             21.59593
530.12931   1237.81034  232.00000  20.04052             14.88403
531.77377   519.97705   305.00000  24.65142             15.79888
531.38636   1315.29545  176.00000  20.85755             10.86676
536.80000   1029.22581  155.00000  16.05708             12.42753
539.41358   1380.18519  162.00000  16.69940             12.54788
545.13115   1291.16393  122.00000  15.15411             10.54305
548.09766   364.26172   256.00000  25.63626             12.81731
551.76812   1346.42029  138.00000  13.97014             12.68986
555.17742   1247.44624  186.00000  19.19304             12.52190
557.09278   1269.35052  97.00000   12.91355             9.69018
559.00690   1355.00690  145.00000  16.78049             11.09768
563.46014   596.54710   276.00000  23.66161             15.53147
563.15287   1228.72611  157.00000  19.05240             10.49927
568.80427   298.08185   281.00000  19.60399             18.47386
572.36145   1219.07229  83.00000   11.42647             9.26630
572.42727   1247.70000  110.00000  12.67840             11.39645
579.41935   1308.85161  155.00000  15.10186             13.16079
583.19772   68.41825    263.00000  20.24565             16.66344
582.12670   1059.73756  221.00000  20.92696             13.80986
582.94326   218.59574   141.00000  16.75366             11.24311
586.14070   1216.05025  199.00000  19.55392             13.08036
583.53191   1232.19149  47.00000   8.48643              7.03599
585.72727   1201.22222  99.00000   12.60900             10.01829
594.45740   118.91031   223.00000  20.01225             14.33417
596.98406   622.57769   251.00000  27.04732             12.27796
601.31963   1298.88128  219.00000  21.77922             12.94622
602.35833   1169.35833  120.00000  16.91461             9.11704
605.30769   1279.92760  221.00000  21.01222             13.55402
601.18182   1062.93939  33.00000   8.14792              5.29660
602.21429   1072.19643  56.00000   9.84374              7.27266
608.40476   1174.97619  210.00000  25.57849             11.23371
610.85308   1149.67299  211.00000  23.84657             11.41278
611.84932   1161.12329  73.00000   10.42049             8.95414
610.41379   1139.58621  29.00000   7.04934              5.14614
614.22275   146.46445   211.00000  24.11322             11.18962
621.93000   1079.00333  300.00000  26.02858             15.13962
622.99320   779.59864   147.00000  18.04933             10.49120
624.78241   88.05093    216.00000  20.84799             13.27653
624.91304   2.71739     46.00000   8.43527              7.18480
636.05590   642.81056   322.00000  23.25250             18.54493
632.91960   1855.69347  199.00000  18.83484             13.98002
633.14943   1120.82375  261.00000  23.12692             14.56023
638.16432   742.69953   213.00000  20.39037             13.59679
639.50000   1237.19173  266.00000  26.71267             13.40335
646.61069   778.35496   262.00000  24.31517             13.98567
644.56391   1102.09774  133.00000  15.80988             10.81745
657.77850   597.20195   307.00000  24.59578             16.67766
652.80534   1076.95038  262.00000  20.14438             16.83058
653.16667   653.25000   36.00000   7.39555              6.20709
657.81373   1927.67647  204.00000  17.17940             15.16611
663.78684   1202.85263  380.00000  28.84303             17.51195
661.31579   1038.87368  95.00000   12.81018             9.56011
665.78947   1054.50439  228.00000  20.13474             14.60072
666.10730   724.28755   233.00000  17.72724             16.88886
682.80618   604.82865   356.00000  30.53391             15.12206
675.77251   670.36967   211.00000  19.31633             13.94837
674.93023   1944.03488  172.00000  18.31499             12.00382
680.48178   1911.64372  247.00000  24.67526             13.50822
673.62500   1018.65625  32.00000   6.48865              6.26553
680.58889   37.43889    180.00000  20.28742             11.45284
683.89706   702.30882   204.00000  19.63734             13.41250
685.28975   1016.68551  283.00000  26.04450             14.46241
686.22500   1159.62500  280.00000  21.89447             16.47771
681.93548   1049.25806  31.00000   7.32703              5.36613
688.18817   1953.90860  186.00000  18.75263             12.69594
693.60000   123.05789   190.00000  17.29425             14.16372
698.19718   680.14085   213.00000  23.00916             12.10152
699.00948   1931.76777  211.00000  17.29732             15.64036
703.82792   800.19481   308.00000  28.60355             13.92476
700.79195   1002.95973  149.00000  17.82500             10.71631
702.35231   93.50534    281.00000  24.74466             14.78073
706.68902   21.06098    164.00000  22.57435             10.16506
706.84360   268.38389   211.00000  19.18999             14.09883
715.58824   1031.39386  391.00000  27.01244             20.48886
705.55556   1012.02469  81.00000   11.20199             9.24492
708.78351   986.27320   194.00000  21.10232             11.87589
709.71204   308.62827   191.00000  17.14365             14.25360
716.43902   1121.89160  369.00000  30.11228             15.93841
716.09091   686.14646   198.00000  20.95858             13.01203
714.82000   996.40000   50.00000   9.67312              6.66876
722.21205   354.02892   415.00000  29.24397             18.27763
720.39157   1904.26506  166.00000  16.62882             12.93921
722.76220   148.50000   164.00000  17.27469             12.16140
727.79310   623.67050   261.00000  22.50498             14.95973
728.58103   208.35573   253.00000  25.44303             13.29599
723.29268   694.31707   41.00000   9.22391              5.70313
730.61017   981.74576   236.00000  24.66499             12.53482
728.50980   163.20915   153.00000  15.87274             12.45889
733.91186   608.43051   295.00000  29.39371             13.03807
737.11538   947.08413   416.00000  32.46329             18.91074
728.69091   709.36364   55.00000   8.98179              7.83764
732.45745   1817.68085  188.00000  17.62512             13.76222
734.56000   26.29000    100.00000  12.41080             10.24934
743.13928   1046.15599  359.00000  32.10085             15.38258
741.35263   215.97895   190.00000  18.34747             13.24048
742.86885   703.26639   244.00000  21.83923             14.66561
744.84333   827.50000   300.00000  24.95503             16.43089
744.03077   588.48462   260.00000  21.22767             15.84971
741.02857   906.22857   35.00000   7.54253              5.99796
749.09901   924.45050   202.00000  21.90901             11.82033
750.69841   937.30159   63.00000   10.36267             7.80251
752.40789   1029.50000  152.00000  14.19843             13.67885
751.81429   1074.39524  210.00000  20.44282             13.18844
752.58222   905.85778   225.00000  22.98288             12.60458
754.60000   842.96000   25.00000   6.55384              4.92154
767.86282   546.80505   277.00000  28.86631             12.61340
764.70588   754.82353   85.00000   12.22051             8.85573
764.73793   991.29655   145.00000  16.10374             11.59361
769.66222   855.03778   450.00000  29.27109             20.74489
764.91837   1002.38776  49.00000   8.96650              6.97721
768.19872   1953.43590  156.00000  17.17058             11.98553
771.92636   222.68992   258.00000  19.72000             16.82400
779.75943   875.91981   212.00000  22.51644             12.12125
779.10119   1013.27381  168.00000  16.70130             12.88736
778.41176   897.32353   34.00000   6.90018              6.23085
783.09286   776.20000   140.00000  14.27548             12.57224
785.20158   958.22134   253.00000  34.01777             10.22114
785.55124   792.34276   283.00000  24.75048             15.12191
782.95238   846.71429   21.00000   6.11322              4.46685
791.71200   1070.79600  250.00000  19.38132             16.93763
788.06667   748.63333   30.00000   6.90347              5.53654
807.63406   582.49410   593.00000  33.24909             23.49161
798.93401   947.47716   197.00000  20.71442             12.94785
806.10000   761.52727   110.00000  12.37078             11.89771
803.39394   777.66667   33.00000   7.29133              6.13238
812.05830   957.46188   223.00000  19.36475             14.99344
817.97255   642.35294   255.00000  23.10562             14.08656
812.97436   923.94872   78.00000   11.19312             8.84017
816.86164   888.94969   159.00000  15.09008             14.12142
821.13529   707.84118   170.00000  21.64495             10.02935
827.27536   506.68116   276.00000  21.99491             16.32971
827.50216   899.10390   231.00000  20.91570             15.46584
832.35252   1079.92806  278.00000  26.44679             14.06946
826.22222   656.52778   36.00000   8.47099              5.40534
831.13636   690.25000   44.00000   8.63367              6.45111
838.82283   647.93307   254.00000  24.77017             13.95290
844.88579   624.59889   359.00000  24.76520             19.71078
841.71078   958.09314   204.00000  20.00438             12.99452
847.92883   690.70463   281.00000  23.55377             15.47858
853.72243   1092.41825  263.00000  24.11603             14.28651
855.78548   481.00330   303.00000  28.51226             14.35217
851.29630   875.57407   54.00000   8.83565              7.79328
854.37500   675.33929   56.00000   9.48969              7.53068
871.11814   872.30802   237.00000  24.91838             12.71762
867.44928   970.35870   276.00000  21.16397             17.53715
870.80751   854.21596   213.00000  20.49689             13.32664
867.13462   672.76282   156.00000  16.78609             11.93622
865.13043   692.47826   23.00000   6.22489              4.76551
877.01263   645.53030   396.00000  27.13584             19.04256
881.21032   683.94444   252.00000  21.33786             15.34789
880.96903   1106.13717  226.00000  22.40455             13.10351
882.24419   662.63953   172.00000  18.63862             11.83949
889.59375   961.23125   160.00000  19.43872             10.75361
887.03704   1097.66667  27.00000   6.22247              5.63714
895.05446   845.94554   202.00000  22.62767             11.73522
902.49565   667.01159   345.00000  31.92569             13.86080
905.77447   961.21702   235.00000  23.34829             13.12512
906.04167   739.44444   288.00000  22.49836             16.46788
907.16578   1969.81818  187.00000  15.82944             15.25296
908.82873   699.72376   181.00000  15.99017             14.56988
914.63855   764.43775   249.00000  24.88330             13.10027
915.44025   786.63522   159.00000  16.65585             12.25798
923.20438   967.50000   274.00000  24.28300             14.43649
919.59483   814.71552   116.00000  13.35851             11.14053
925.89674   753.92935   184.00000  15.74529             15.05961
928.78788   700.20779   231.00000  27.38708             10.98366
925.60825   1966.92784  97.00000   12.86311             9.61537
925.33333   1115.85714  21.00000   5.56923              4.82289
940.19484   683.14900   349.00000  26.64801             17.68697
937.77434   1122.15044  226.00000  21.90681             13.42477
936.75862   957.93103   29.00000   6.75067              5.48724
949.03791   1136.11374  211.00000  21.17133             12.89255
951.29365   819.55556   126.00000  13.33820             12.15886
956.04453   958.87045   247.00000  23.80333             13.52879
958.72535   749.77817   284.00000  28.23418             13.29165
962.08658   815.11688   231.00000  22.47825             14.21967
959.68198   609.57597   283.00000  24.73217             15.60538
971.92657   1147.27972  286.00000  26.97761             13.95259
973.94719   833.42904   303.00000  27.56114             14.51917
972.31250   283.20312   64.00000   9.31091              8.79399
977.12742   565.06648   361.00000  24.81961             19.44578
981.70472   544.29921   254.00000  21.68235             15.63137
977.88158   1274.28947  76.00000   10.54039             9.15183
980.82796   957.38710   93.00000   12.51235             9.50665
998.72727   743.10303   330.00000  22.52578             20.87376
1001.89720  940.77103   214.00000  25.21781             10.91634
1001.96939  622.95918   196.00000  19.70658             12.93694
1013.18675  1161.20783  332.00000  22.71389             19.12259
1014.70312  742.00000   192.00000  19.61552             12.70450
1012.66667  2030.42647  204.00000  16.68152             15.63117
1015.92381  621.13333   105.00000  14.45629             9.82951
1019.39106  860.35196   179.00000  16.06040             14.21240
1018.96923  1975.16923  195.00000  16.38701             15.27182
1021.65929  2004.76106  226.00000  18.61707             15.60169
1021.78261  518.19324   207.00000  19.98948             13.37364
1028.34524  615.69841   252.00000  20.22843             16.22327
1039.04594  880.91873   283.00000  26.32573             13.90389
1036.10732  1937.49756  205.00000  17.80006             14.86551
1039.40729  852.89970   329.00000  25.30173             18.91586
1038.67480  1910.86992  246.00000  19.08916             16.42768
1043.61871  870.84173   139.00000  16.17708             11.11774
1043.70109  499.82609   184.00000  18.02546             13.28107
1046.11374  633.43128   211.00000  20.89590             13.36856
1048.32226  1188.77076  301.00000  26.67913             14.70984
1049.68214  682.20714   280.00000  24.93120             14.79637
1057.80311  623.27461   193.00000  17.07515             14.72093
1060.79104  35.70149    268.00000  24.12877             14.29875
1059.28099  700.40909   242.00000  21.69310             14.54933
1061.17778  927.57778   270.00000  20.47045             16.94967
1060.84069  958.12990   408.00000  30.44057             17.65435
1061.14493  898.86957   69.00000   10.38327             8.52531
1075.80451  1816.69925  399.00000  29.15932             17.56637
1071.60417  1876.90833  240.00000  18.81914             16.25829
1075.63158  874.24561   228.00000  21.71859             13.78943
1075.51724  599.72414   29.00000   7.01638              5.24204
1081.46792  1745.57736  265.00000  20.27188             16.66957
1087.20725  590.08808   193.00000  20.64466             12.63649
1097.31132  1008.66352  318.00000  24.58741             18.86320
1095.90761  69.27717    184.00000  16.33938             14.76210
1099.22989  475.78161   261.00000  21.60363             15.78290
1101.40969  901.12335   227.00000  20.61824             14.13882
1102.13772  1775.55689  167.00000  15.52689             13.71297
1106.08108  600.17905   296.00000  21.09994             19.78154
1130.52985  913.86940   268.00000  27.62790             12.41065
1126.03642  1022.57616  302.00000  23.40208             17.28502
1133.95833  602.14583   288.00000  27.84325             13.93424
1130.32544  107.96450   169.00000  17.36408             14.36028
1138.36975  100.05882   119.00000  14.90873             10.24857
1146.95367  454.50579   259.00000  24.80508             13.44952
1145.31343  569.64552   268.00000  21.84694             16.60500
1160.91411  926.18405   326.00000  38.30800             11.22263
1150.58889  912.61111   90.00000   13.21307             8.85574
1155.04183  610.21673   263.00000  20.84215             16.67186
1165.73000  1028.98400  500.00000  34.26950             18.91662
1161.89344  123.36066   244.00000  21.61008             14.47624
1171.66116  452.09091   242.00000  18.91986             16.33139
1168.21622  912.37838   37.00000   7.87292              6.01395
1181.34821  613.79018   224.00000  26.14715             11.52808
1178.12093  572.93953   215.00000  22.11621             12.45472
1178.43411  896.04264   258.00000  20.37365             16.23215
1184.65052  164.97924   289.00000  24.20204             15.37476
1202.88435  900.91837   294.00000  25.52498             16.13943
1201.15667  1026.35000  300.00000  23.53106             16.30019
1203.33579  569.70111   271.00000  25.70257             14.07192
1204.75424  630.22034   236.00000  22.21346             14.00262
1212.70661  938.97107   242.00000  22.18286             13.89516
1220.31024  614.04819   332.00000  32.58432             13.62707
1218.74793  181.30992   242.00000  19.70170             15.70915
1217.81905  923.02857   210.00000  20.24544             13.25301
1220.78947  1027.23977  171.00000  19.22669             11.48113
1222.30000  1038.62500  200.00000  21.15088             12.14209
1228.68966  1053.27299  348.00000  35.57664             12.74080
1224.25758  431.57576   198.00000  19.19299             13.22269
1229.98294  636.67577   293.00000  22.03378             17.53806
1233.96063  2014.94488  127.00000  14.56666             11.16337
1241.96538  901.18077   260.00000  19.73247             17.57958
1244.15169  184.19663   178.00000  16.60961             13.79095
