# Filename: Nuclei_416_ctrl_60x_013.npz
# Voxel size (nm): (108, 108)
# Area quantity: voxels
# Num nuclei detected: 1348
Y           X           AREA       MAJOR_AXIS_LENGTH    MINOR_AXIS_LENGTH
5.17143     861.12857   70.00000   10.34511             8.78397
10.80000    1071.20000  75.00000   10.43082             9.26056
19.23590    1481.54359  195.00000  18.13510             13.76515
19.22857    659.56190   105.00000  14.17505             9.54384
21.83889    900.73333   180.00000  18.23390             12.62514
18.90441    1163.98529  136.00000  14.06425             12.34028
26.82353    834.75000   68.00000   10.45586             8.42965
31.29204    1174.07080  113.00000  12.95938             11.11600
36.48241    700.31658   199.00000  18.30809             13.89657
32.02778    817.19444   72.00000   10.99105             8.42757
34.11017    1315.33051  118.00000  13.61350             11.06460
38.39655    958.16379   116.00000  12.80872             11.56801
49.42202    1333.69725  109.00000  13.58347             10.31338
52.49080    617.02454   163.00000  16.54885             12.69035
57.86364    880.96364   110.00000  12.55888             11.31657
61.74172    1141.98675  151.00000  15.27336             12.62128
64.96234    817.97490   239.00000  22.33532             13.68795
66.50000    1161.50000  52.00000   10.42720             6.29136
73.00000    544.95522   134.00000  14.63615             11.82794
73.78750    725.76250   160.00000  16.12811             12.71452
77.13793    1320.26293  232.00000  20.55498             14.47993
79.67476    1077.27184  206.00000  20.73617             12.93413
83.94886    866.52273   176.00000  18.44543             12.23956
85.20571    1221.53143  175.00000  15.66212             14.23775
94.32520    412.87805   123.00000  14.86615             10.60882
95.81379    1173.28276  145.00000  16.34621             11.32294
97.33803    779.41197   284.00000  22.49614             16.15680
102.81364   661.88636   220.00000  26.09005             10.94123
96.73810    1143.61905  84.00000   12.91564             8.26093
99.42458    1507.36313  179.00000  18.32411             12.49507
99.45902    1098.04098  122.00000  13.75158             11.47003
106.94194   401.36774   155.00000  17.59343             11.79592
107.29189   1184.30270  185.00000  19.28292             12.44921
106.40909   970.21970   132.00000  14.78648             11.42437
110.40559   1339.99301  143.00000  14.36300             12.66546
114.01765   1234.98235  170.00000  17.56719             12.33628
112.95000   841.69286   140.00000  14.21196             12.59079
119.41818   1036.53636  220.00000  20.80444             13.50258
118.09174   1079.39450  109.00000  13.27549             10.49592
119.87671   1627.46575  73.00000   12.76872             7.94756
122.70899   635.24868   189.00000  19.36908             12.57768
120.98990   1478.74747  99.00000   12.55365             10.07898
124.22222   712.68333   180.00000  17.57251             13.17958
124.30909   1610.04848  165.00000  16.21332             13.01182
131.81646   1392.64557  158.00000  18.52396             10.93757
134.42211   1185.33668  199.00000  17.87451             14.24897
134.10891   750.22772   101.00000  13.64394             9.42252
134.84746   1057.07910  177.00000  17.78594             12.69287
138.44335   1301.94089  203.00000  17.48966             14.83022
138.90385   1169.32692  52.00000   9.12854              7.50668
144.54464   1449.52679  112.00000  13.49075             11.12073
148.29082   661.32653   392.00000  26.39532             19.45333
147.17919   996.78613   173.00000  16.04930             13.81446
148.86503   1078.00613  163.00000  19.82312             10.65596
147.09615   1091.73077  104.00000  11.96352             11.11604
151.43651   1015.19048  126.00000  13.69478             12.38273
151.83750   1579.67500  160.00000  15.69216             13.08601
152.76398   1621.96273  161.00000  16.98529             12.06103
152.97917   891.02604   192.00000  16.35100             15.08455
153.66207   265.68966   145.00000  15.75258             11.75695
154.86928   1185.21569  153.00000  16.77439             11.67118
151.46296   1034.46296  54.00000   9.12225              7.50309
159.65445   1264.93194  191.00000  17.07566             14.64582
161.96923   442.71923   260.00000  18.84927             17.71347
162.76243   1393.22099  181.00000  15.83125             14.71260
164.98537   1560.91220  205.00000  16.75771             15.63326
167.10000   608.03750   240.00000  19.45685             15.76013
167.78049   638.78537   205.00000  17.82581             14.68335
162.42500   1044.20000  40.00000   7.83752              6.65156
166.50000   1034.51786  56.00000   9.54284              7.46901
168.81429   1489.56429  140.00000  14.29581             12.49162
168.20530   1104.15894  151.00000  17.10123             11.37351
171.81481   671.82222   270.00000  22.18973             16.23755
172.12364   774.09818   275.00000  20.79729             16.90888
171.02837   830.31915   141.00000  13.93591             12.88489
171.50500   1008.03500  200.00000  20.47711             12.79171
174.02752   1320.28440  109.00000  13.39552             10.67736
176.11312   407.90045   221.00000  20.15304             14.11037
178.47126   855.73563   261.00000  20.06314             16.58977
177.11921   699.25166   151.00000  16.19121             11.87218
179.61417   1088.78740  127.00000  14.01797             11.59749
184.30213   1515.70213  235.00000  19.79973             15.22544
188.15769   1233.53846  260.00000  24.10451             14.27522
185.59140   634.73118   186.00000  17.58487             13.59549
188.48997   984.42980   349.00000  23.40813             20.03641
190.23016   889.89286   252.00000  21.50914             15.23182
187.13333   1557.17333  150.00000  15.62196             12.29373
188.39568   749.15827   139.00000  14.28359             12.41639
188.85443   791.65823   158.00000  14.49174             13.89050
191.07907   952.13488   215.00000  18.83494             14.62899
193.19689   652.23834   193.00000  19.06070             13.01454
201.33772   613.37719   228.00000  26.37516             11.14989
198.47639   1377.21459  233.00000  20.46915             14.61355
198.79412   510.36765   204.00000  19.01685             13.70234
201.36604   692.05660   265.00000  22.02840             15.37395
197.84416   759.00000   154.00000  15.04846             13.11138
200.77016   718.36290   248.00000  19.69479             16.18247
200.86792   904.10692   159.00000  16.75263             12.27953
200.69014   1086.95070  142.00000  16.15210             11.17148
200.09633   1451.56422  218.00000  18.40916             15.19803
202.32812   849.53125   192.00000  17.59968             14.02128
204.68327   934.52313   281.00000  21.25460             16.85764
201.21429   400.33571   140.00000  14.86209             12.64043
202.50327   1146.74510  153.00000  15.26956             12.83671
205.07173   356.62025   237.00000  19.40396             15.56475
209.64186   1051.63721  215.00000  18.56690             14.80369
211.93158   771.99474   190.00000  18.48636             13.31996
214.14286   681.96154   182.00000  22.62985             10.34680
211.69325   885.21472   163.00000  14.86231             14.03186
213.95808   1365.83832  167.00000  15.51376             13.72188
215.62602   1235.99187  123.00000  13.47935             11.63691
220.32184   1345.53257  261.00000  21.75385             15.34757
218.32903   1199.81290  155.00000  16.65446             11.94724
221.28042   1000.64550  189.00000  21.53145             11.92240
222.61376   656.12169   189.00000  20.71335             11.83641
221.42222   435.18519   135.00000  14.77235             12.01506
223.12834   828.58289   187.00000  17.58536             13.56335
227.41089   1279.20297  202.00000  17.68885             14.67070
226.88525   974.95082   122.00000  14.39312             10.97532
227.78082   1142.05479  73.00000   11.19405             8.35595
232.23936   350.36702   188.00000  18.27441             13.36857
232.03933   1327.72472  178.00000  16.35775             13.88703
232.82775   843.27751   209.00000  19.32115             13.93184
234.84239   695.42391   184.00000  17.18319             13.83081
231.20690   1188.28736  87.00000   11.38575             9.79045
238.95175   479.74123   228.00000  18.43326             15.79310
237.18431   936.77255   255.00000  24.77559             13.31191
240.71951   1101.15041  246.00000  20.33625             15.58934
240.11310   1133.32143  168.00000  20.71364             10.57589
238.40288   1354.53237  139.00000  14.82010             11.96619
239.33333   763.06667   165.00000  15.69390             13.44792
244.18672   707.70124   241.00000  21.64341             14.24679
243.55738   244.75410   183.00000  16.55444             14.19502
243.75000   1087.51429  140.00000  15.10732             11.84760
245.81034   1339.19540  174.00000  17.41361             12.89544
248.58095   1281.10476  210.00000  17.97678             14.90358
249.15319   414.78723   235.00000  21.90135             14.40734
249.87059   1255.94118  255.00000  19.84401             16.43507
249.68675   785.44177   249.00000  20.28648             15.69665
247.67005   903.09137   197.00000  22.99952             11.03338
254.05236   444.21990   191.00000  20.69654             12.45171
249.76585   1054.13659  205.00000  23.22500             11.45720
259.19847   991.18702   262.00000  25.26022             14.05979
256.47761   566.53234   201.00000  18.80811             13.65464
260.37415   1127.07483  294.00000  23.77964             16.01472
262.43056   679.39583   288.00000  24.00797             15.60021
262.11494   944.94636   261.00000  20.45272             16.57226
260.27083   1735.48958  96.00000   13.67962             9.50575
261.53937   1013.64567  254.00000  25.81275             12.74272
266.55707   531.61413   368.00000  25.87687             18.19332
263.93506   788.75758   231.00000  22.98251             12.83562
266.11404   837.53070   228.00000  19.56415             15.01705
262.92105   1308.47368  76.00000   11.04565             8.95537
267.79279   1159.29129  333.00000  23.85073             17.81062
268.66537   463.36965   257.00000  19.05403             17.31829
267.96327   740.42857   245.00000  21.05116             15.02089
265.74375   854.36875   160.00000  17.51194             11.70922
267.86089   1058.14698  381.00000  31.00399             16.10164
268.27962   1393.38389  211.00000  16.99026             15.87053
267.84783   626.16848   184.00000  18.26991             12.83655
272.07600   410.67200   250.00000  22.23999             14.44053
271.77232   1537.24554  224.00000  19.87910             14.40333
271.52000   658.34500   200.00000  16.99289             15.02434
270.85556   1364.46111  180.00000  17.52535             13.25869
273.17308   1589.05288  208.00000  20.73159             12.91630
278.66667   911.74583   240.00000  19.53174             15.69394
283.00356   1508.41637  281.00000  26.71182             13.86885
284.35912   1317.52486  181.00000  19.52737             11.82239
283.87978   1284.57923  183.00000  19.97873             11.71868
285.01732   1180.01732  231.00000  19.19533             15.34190
288.85496   700.38931   262.00000  25.63995             13.14101
287.60000   780.98788   165.00000  18.41081             12.43288
286.87879   1204.65455  165.00000  16.53515             12.73824
288.39922   1403.76744  258.00000  22.47053             14.68219
286.20000   718.75484   155.00000  19.95404             10.55014
288.06341   749.70244   205.00000  24.83674             11.05360
289.98394   1005.53012  249.00000  19.61958             16.30930
291.91566   644.69478   249.00000  21.02554             15.15069
291.81006   811.18994   179.00000  17.55474             13.08483
292.11905   931.28095   210.00000  17.82000             15.12003
292.18391   1612.44253  174.00000  16.73765             13.31638
294.51562   1141.73828  256.00000  21.22876             15.48959
295.24424   604.41935   217.00000  17.90696             15.45609
296.13876   1691.04785  209.00000  18.55782             14.38199
300.51471   393.84559   272.00000  22.19792             15.65951
299.06044   1259.80220  182.00000  19.79972             11.97757
297.26752   756.25478   157.00000  16.28487             12.63430
301.84874   1374.80672  238.00000  21.57224             14.63830
303.11834   900.04142   169.00000  18.39369             12.11681
298.87500   1065.51087  184.00000  22.86505             10.41648
303.31973   1084.11565  147.00000  17.15388             10.98933
304.92991   1172.61215  214.00000  19.02263             14.48137
307.87634   1352.29032  186.00000  19.63629             12.27661
310.53030   1413.44949  198.00000  20.51627             12.45424
312.35065   720.70996   231.00000  19.14561             15.59673
310.85427   768.24121   199.00000  17.48993             14.86040
312.19476   790.32210   267.00000  21.39984             15.92507
314.06395   1682.30233  172.00000  16.11218             13.78185
317.74545   1386.44848  165.00000  17.80955             11.92787
316.10569   1603.67480  123.00000  13.54537             11.72108
318.46154   747.77885   208.00000  19.17081             14.24985
319.20000   547.50732   205.00000  19.26814             13.75253
316.49383   757.96296   81.00000   11.52520             9.05056
319.75000   1287.12500  208.00000  22.23763             12.25715
319.76000   867.41143   175.00000  20.92018             10.77332
323.27344   1128.48438  128.00000  16.05727             10.19014
323.86127   1260.69942  173.00000  17.82962             12.43451
329.52973   1217.95135  185.00000  25.95019             9.29200
327.06763   367.35266   207.00000  17.37520             15.22903
325.37179   1011.41667  156.00000  15.87747             12.65898
325.71000   1039.91000  100.00000  16.79783             7.74840
328.47500   563.10000   160.00000  17.33171             11.90133
330.58511   1486.06383  188.00000  22.74674             10.78713
325.75000   1230.50000  92.00000   12.02184             9.82661
330.47514   1190.00552  181.00000  18.25657             12.61289
330.72115   626.60096   208.00000  19.98855             13.35221
331.66667   718.52511   219.00000  18.73566             15.09936
329.60256   1246.89744  156.00000  17.39796             11.46902
333.62500   863.69118   136.00000  18.19817             9.82154
328.64835   1497.78022  91.00000   10.93616             10.64206
331.06897   644.00862   116.00000  13.08990             11.27821
332.56291   678.48344   151.00000  15.22296             12.69856
336.49362   976.18723   235.00000  18.11474             16.66468
336.59172   1393.27811  169.00000  18.39864             11.86610
337.05856   1544.90090  222.00000  17.83106             15.96516
337.29474   793.84737   190.00000  19.15919             12.74547
337.84324   879.72973   185.00000  15.93923             15.27940
335.65873   1405.24603  126.00000  13.43329             12.11914
338.30409   1591.36842  171.00000  15.07623             14.45391
342.65241   1054.85561  187.00000  19.96467             12.60511
342.75185   462.10370   270.00000  21.82080             15.85954
342.60544   927.07483   147.00000  15.87923             11.94392
341.65649   834.80916   131.00000  14.70446             11.56706
344.99592   1366.79592  245.00000  20.63832             15.27881
342.75740   645.14793   169.00000  17.52745             12.29781
345.11675   699.32487   197.00000  22.47231             11.31246
356.19565   314.26522   230.00000  24.66923             13.29482
352.67978   912.03371   178.00000  16.53119             13.96079
355.64943   1089.35057  174.00000  21.41456             10.67874
355.34884   850.54651   172.00000  17.18837             13.16696
355.38961   1009.94805  154.00000  17.74038             11.14260
354.97753   1596.90449  178.00000  18.14430             12.53046
363.50552   1177.19061  362.00000  25.93436             17.94400
360.07229   1305.43373  166.00000  19.04218             11.69031
360.13115   1404.12705  244.00000  20.82735             15.09693
361.74879   696.95652   207.00000  18.69847             14.38242
361.26667   1242.71667  120.00000  13.39178             11.52843
367.78014   748.62411   141.00000  20.30025             9.11162
366.46939   906.14966   294.00000  27.02190             14.32286
367.16959   992.95906   171.00000  19.92438             11.00372
364.83060   1673.68852  183.00000  17.16737             13.74284
363.55556   1261.46914  81.00000   11.25573             9.16027
368.08511   525.70213   235.00000  21.30784             14.12641
368.72398   1418.52036  221.00000  19.63929             14.36894
369.56522   648.95652   230.00000  18.42909             16.04751
367.81707   943.21341   164.00000  16.91562             12.55282
367.10714   809.73214   112.00000  12.20003             11.80069
369.16129   1119.91935  186.00000  17.89236             13.32267
369.48193   345.39759   166.00000  16.50809             12.89752
367.96825   965.25397   63.00000   11.70295             6.99382
371.80488   496.91057   246.00000  19.41300             16.23080
367.74359   1069.51282  78.00000   11.86697             8.42265
371.58794   1013.00000  199.00000  20.00490             13.08887
373.36686   1268.57396  169.00000  24.36901             10.79142
376.52921   608.56357   291.00000  21.40815             17.60441
376.66667   1070.09179  207.00000  21.00301             13.07041
374.77612   1289.25373  134.00000  17.66405             9.86778
377.45783   1494.37349  166.00000  20.08937             11.16310
379.95954   730.57225   173.00000  19.04243             11.73226
377.50685   774.21918   146.00000  14.63828             12.73624
380.82418   1134.26374  182.00000  18.48572             12.59558
379.75333   806.37333   150.00000  14.85113             12.89653
379.82051   1208.21026  195.00000  19.24669             12.99600
383.75099   567.85375   253.00000  20.82769             15.51754
383.86127   1052.82081  173.00000  16.56792             13.32607
383.26131   1524.70854  199.00000  20.52789             12.70751
388.84906   334.63396   265.00000  19.66630             17.42987
386.92000   1325.43273  275.00000  26.05710             13.48163
387.24638   1366.30918  207.00000  16.94224             15.63613
389.21631   501.67021   282.00000  24.31343             14.98413
385.77236   783.78049   123.00000  14.79372             10.73711
387.35912   692.24862   181.00000  17.77430             13.27503
386.70690   752.12931   116.00000  13.91651             10.75747
385.26190   794.48810   84.00000   10.69475             10.29788
391.87845   1296.34807  181.00000  24.48298             10.22833
388.05952   1634.76190  84.00000   11.65362             9.32947
393.12712   669.79237   236.00000  19.82209             15.23046
392.73295   740.20455   176.00000  16.82282             13.75105
391.00000   957.94853   136.00000  17.24048             10.37049
393.13333   1017.80556  180.00000  16.69535             13.96258
397.66667   1401.99275  138.00000  18.98561             10.85744
401.60000   637.45238   210.00000  24.31038             11.39965
403.76210   829.12903   248.00000  21.34623             15.88280
400.65833   1008.27500  120.00000  13.75396             11.18410
400.16923   1559.76154  130.00000  13.21459             12.79930
403.05159   618.26984   252.00000  22.71388             14.46668
404.17197   773.42675   157.00000  16.26706             12.42232
411.51363   483.24528   477.00000  31.40938             19.71705
403.88696   1274.53913  115.00000  14.15683             10.38806
403.56818   1466.26515  132.00000  14.99892             11.33577
406.34807   1676.65193  181.00000  18.86643             12.44319
408.77852   1219.75839  298.00000  23.92902             16.10927
407.87037   958.57407   108.00000  16.71336             8.31840
408.14737   1344.12632  190.00000  18.46627             13.14352
410.94937   1651.70886  237.00000  20.37370             14.87573
