# Filename: Nuclei_416_ctrl_60x_015.npz
# Voxel size (nm): (108, 108)
# Area quantity: voxels
# Num nuclei detected: 1058
Y           X           AREA       MAJOR_AXIS_LENGTH    MINOR_AXIS_LENGTH
68.71500    727.66000   200.00000  18.20076             14.06497
78.11811    1031.02362  254.00000  20.79484             15.57620
78.30638    971.24681   235.00000  21.32513             14.15374
79.35333    388.75333   150.00000  16.70703             11.62687
97.82828    489.65152   198.00000  18.54673             13.63403
99.88809    223.13718   277.00000  24.29584             15.27030
99.77551    1517.98639  147.00000  14.92643             12.84806
104.21028   404.89252   214.00000  19.84022             13.77851
114.35897   586.29487   156.00000  15.12687             13.42526
117.68644   740.27966   118.00000  12.82800             11.82675
119.00000   1487.49660  147.00000  16.26507             11.61829
119.96341   1535.60976  82.00000   12.90254             8.78153
126.38908   1045.63140  293.00000  23.73005             15.86253
134.19365   956.83810   315.00000  26.50214             15.26261
139.29333   622.84889   225.00000  25.00040             11.56287
141.31618   664.25368   272.00000  23.81059             14.67342
142.93443   509.52459   183.00000  16.99693             13.83939
147.38509   644.48447   161.00000  16.18111             12.78854
148.19718   1506.85211  142.00000  16.08221             11.41764
151.52308   531.25385   130.00000  13.13915             12.64121
157.83471   1040.35124  242.00000  19.70243             15.72747
159.64286   571.40000   140.00000  14.92268             12.00589
162.78286   1474.48000  175.00000  19.69641             11.56246
168.71340   694.93769   321.00000  27.00386             15.70862
165.43750   1500.07292  192.00000  17.61781             14.04037
167.00000   520.72781   169.00000  16.13437             13.42565
176.72059   1539.67157  204.00000  20.41480             12.88357
183.20513   668.63675   234.00000  20.32087             15.24067
180.80347   651.96532   173.00000  16.31130             13.60160
187.11856   951.13918   194.00000  19.01895             13.12164
191.73272   963.43779   217.00000  21.44912             13.04591
195.76923   679.18590   156.00000  14.40036             13.83952
202.14340   775.12075   265.00000  22.56840             15.58880
202.29213   596.67416   178.00000  17.70059             13.17242
204.48399   1474.77224  281.00000  19.87690             18.09868
207.28571   482.12500   224.00000  20.54819             13.98219
203.26437   554.05747   87.00000   11.94801             9.40923
210.64655   955.20259   232.00000  20.63211             14.38887
217.30943   589.50943   265.00000  25.75661             13.17571
220.83453   1025.08633  278.00000  27.66217             13.03683
230.37778   481.13889   180.00000  17.36083             13.22995
228.51064   449.41489   94.00000   13.41533             9.36247
235.75916   1615.80105  191.00000  19.90908             12.33283
234.80645   653.42742   124.00000  14.63028             10.82919
241.14563   643.51456   206.00000  20.86741             12.62047
244.94309   690.13415   246.00000  23.71377             13.32948
246.28516   615.50391   256.00000  21.98132             14.85623
252.17117   794.05856   222.00000  19.20306             14.73178
256.70293   544.59414   239.00000  18.26245             16.69139
256.21739   289.89130   46.00000   8.84684              6.85924
264.93411   1603.63178  258.00000  23.73730             13.99472
264.24107   580.92857   224.00000  20.77278             13.81181
267.27344   964.20312   256.00000  22.33129             14.69973
262.72340   421.89362   94.00000   11.64020             10.54850
265.63298   977.16489   188.00000  18.72804             12.82410
265.51550   1585.06977  258.00000  18.96136             17.35308
268.61006   648.86792   159.00000  16.81342             12.08276
275.10837   292.40148   406.00000  26.96021             19.33567
273.64516   502.94355   124.00000  13.70856             11.57626
278.79111   114.56000   225.00000  19.65772             14.81502
281.47547   726.99623   265.00000  24.13482             14.03737
278.58115   637.05236   191.00000  18.44122             13.29576
284.73759   345.56738   141.00000  15.01963             11.99477
286.56039   976.18357   207.00000  19.68621             13.45490
293.41699   1019.16602  259.00000  21.83121             15.20788
295.80645   592.60829   217.00000  23.59836             11.91942
298.98276   674.74569   232.00000  23.72405             12.62969
299.25926   964.37407   270.00000  18.87491             18.45779
298.01172   1254.51562  256.00000  20.87307             15.68825
304.22581   609.73790   248.00000  24.63055             12.83147
304.37681   520.37681   276.00000  24.56776             15.15133
304.56738   313.90780   141.00000  14.05180             12.78455
307.62983   1216.80110  181.00000  15.71812             14.88425
314.47101   773.24275   276.00000  25.98049             13.71342
312.48387   569.45161   93.00000   12.82214             9.28071
316.13291   1685.95570  158.00000  14.81365             13.60524
322.97647   562.40000   255.00000  20.15250             16.11814
323.72816   381.96602   206.00000  18.95941             13.93327
327.53597   822.23741   278.00000  21.19002             16.78609
325.36184   843.11184   152.00000  14.32581             13.55893
327.00000   1703.02941  136.00000  17.66288             10.08246
326.20213   321.85106   94.00000   13.66794             8.82501
332.51402   860.57321   321.00000  25.86436             15.91505
333.78102   707.00730   274.00000  24.74878             14.15606
338.86989   808.21933   269.00000  27.03215             12.70304
338.57200   1649.54000  250.00000  19.64987             16.25442
338.68627   467.24837   153.00000  14.94982             13.20056
341.42246   497.94652   187.00000  19.42079             12.91337
347.63437   1017.26250  320.00000  26.23890             15.67893
346.07267   361.88953   344.00000  31.84222             14.62008
346.02319   630.66667   345.00000  23.50338             18.76311
341.64667   48.27333    150.00000  14.86196             12.97932
344.58427   909.00000   178.00000  17.41961             13.12150
349.27136   79.55779    199.00000  18.47287             13.80459
355.72911   553.84438   347.00000  28.59368             15.97759
352.54545   1198.78261  253.00000  21.43699             15.24550
350.69620   1671.75316  158.00000  16.09949             12.50926
358.31447   882.64151   318.00000  26.30510             15.77358
353.89617   419.32787   183.00000  15.78047             14.90561
356.31208   1244.24161  298.00000  21.94884             17.36765
358.79710   349.73913   138.00000  15.46452             11.48785
364.19156   1336.65909  308.00000  22.89038             17.22048
365.27568   955.87027   185.00000  20.16169             11.91590
367.59048   1677.47143  210.00000  18.35030             14.70337
366.08140   1750.08721  172.00000  15.65077             14.02116
366.91379   490.67816   174.00000  20.01213             11.29908
371.27426   317.02532   237.00000  18.06916             16.91641
372.33333   903.51852   189.00000  18.10773             13.39031
374.87500   300.67647   136.00000  15.95551             10.92609
383.65657   1019.90909  297.00000  27.62604             15.11109
378.78761   472.96903   226.00000  17.78509             16.20383
382.09130   1198.76087  230.00000  19.63372             14.93315
381.90446   533.15287   157.00000  16.25522             12.31071
381.02055   930.21233   146.00000  14.94895             12.44025
385.70948   571.10703   327.00000  25.66673             16.33714
384.57752   735.98450   258.00000  22.29856             15.02271
382.19712   892.50962   208.00000  16.72911             15.86161
391.38796   948.74916   299.00000  25.29388             15.36759
391.61137   436.84360   211.00000  27.18642             10.34411
389.53017   605.93534   232.00000  19.94568             14.89569
393.02000   815.97500   200.00000  19.33947             13.27134
393.00546   455.45902   183.00000  17.86591             13.17620
397.35472   513.30189   265.00000  22.59087             15.17073
399.62037   872.71759   216.00000  18.65199             14.79248
399.25822   364.19249   213.00000  18.03544             15.07579
401.76364   1252.46061  330.00000  23.91673             17.71402
398.96386   475.96386   166.00000  17.72792             11.97153
408.09202   637.09816   326.00000  28.60790             14.58289
405.72388   341.93657   268.00000  21.58550             15.95348
405.67660   391.76596   235.00000  17.70666             16.97586
402.73770   323.90164   61.00000   10.24613             7.57849
405.99187   260.16260   123.00000  13.28663             11.77916
410.65306   771.99592   245.00000  22.16419             14.12301
409.53247   309.11039   154.00000  14.58521             13.46839
414.81618   1026.59191  272.00000  24.95710             13.92828
416.40152   1365.62879  264.00000  22.12882             15.21813
416.92473   974.51613   279.00000  22.48041             15.86454
420.00948   576.25592   211.00000  20.56245             13.08028
419.98039   826.69748   357.00000  28.52153             16.71440
420.60084   929.50420   238.00000  18.76617             16.32456
422.83482   1477.13393  224.00000  17.79566             16.12733
425.86036   428.15766   222.00000  23.78649             12.69380
421.70270   362.01802   111.00000  14.04621             10.09084
428.01342   521.41611   298.00000  20.93346             18.24618
426.62011   621.56425   179.00000  17.35189             13.27578
430.32018   906.34649   228.00000  20.71501             14.10341
430.06757   507.00000   148.00000  19.31226             9.95890
432.42857   497.11330   203.00000  20.00604             13.03589
428.50000   165.13333   90.00000   11.71699             9.84010
430.02564   144.41026   117.00000  13.71655             10.86627
433.86585   214.51220   164.00000  16.13212             12.97845
434.21552   397.49138   116.00000  15.21552             9.82706
437.38492   25.23016    252.00000  21.43971             15.09051
436.38760   408.89147   129.00000  15.81053             10.49293
438.20000   362.44828   290.00000  24.40760             15.69802
439.15934   463.81868   182.00000  17.80987             13.03029
443.70952   479.61429   210.00000  22.84342             11.94313
442.74775   864.50000   222.00000  20.36152             14.09086
444.00372   1315.24907  269.00000  21.60394             16.08232
443.00000   152.66234   154.00000  16.00424             12.37146
448.91566   594.29317   249.00000  23.70745             13.65091
446.93237   620.66667   207.00000  19.61208             13.51430
451.28947   565.55263   266.00000  24.03980             14.49851
446.03030   102.01515   66.00000   10.75900             7.89984
447.69565   291.02174   138.00000  18.77710             9.46789
450.51429   251.62857   140.00000  15.36723             11.62917
453.96104   1029.03896  308.00000  23.09809             17.16652
459.45868   340.64876   242.00000  18.99670             16.38988
461.20202   450.30808   198.00000  19.61249             13.05803
456.61404   916.91228   57.00000   10.54347             6.86809
461.85043   1444.71368  234.00000  19.04307             15.69799
463.12000   370.97200   250.00000  20.49873             15.57354
469.32740   1390.80783  281.00000  23.66754             15.17035
469.32328   231.91379   232.00000  21.15582             14.13552
465.89706   157.94118   68.00000   9.48375              9.12389
481.03600   829.78200   500.00000  30.29906             21.47821
478.65818   888.58545   275.00000  26.92603             13.13534
475.21429   935.40756   238.00000  21.73909             14.21040
478.88294   284.17391   299.00000  24.49766             15.56744
475.74483   1369.85862  290.00000  25.41076             14.64407
473.02083   949.28125   96.00000   11.74914             10.43320
481.34034   310.26471   238.00000  20.78612             14.80590
474.58537   1143.56098  41.00000   8.60142              6.00694
480.57895   192.99474   190.00000  16.33454             14.95778
481.72766   362.45957   235.00000  20.09597             14.94254
484.00346   1137.14187  289.00000  24.75966             15.26899
489.14159   846.54277   339.00000  25.52579             17.07078
489.82018   1091.05702  228.00000  24.43312             12.01450
487.01235   1118.44444  81.00000   11.05857             9.32152
489.01471   929.72059   68.00000   11.53366             7.65919
491.88506   1032.02874  174.00000  19.09556             11.85776
487.65385   1048.25000  52.00000   8.37291              7.91640
493.21091   327.87273   275.00000  21.96876             15.99485
494.32000   264.72800   250.00000  19.84959             16.06698
492.68208   519.14451   173.00000  16.93204             13.65817
498.88818   533.16613   313.00000  26.99749             15.05184
494.47842   1411.75899  278.00000  24.96044             14.50018
496.39796   491.71939   196.00000  19.71870             12.66651
494.79054   164.69595   148.00000  14.00039             13.51165
491.71053   181.75000   76.00000   11.48361             8.45401
500.99035   469.11576   311.00000  26.34137             15.36982
492.06061   1171.12121  66.00000   10.65655             7.88315
496.13821   1050.82114  123.00000  14.94465             10.50138
498.89593   1067.88235  221.00000  19.41822             15.71996
499.89048   999.39048   210.00000  18.77894             14.24667
500.84800   1156.18400  125.00000  17.03106             9.43057
504.50254   1185.02030  197.00000  24.65944             10.46370
507.02952   981.57196   271.00000  22.91505             15.36419
503.89593   1097.96833  221.00000  25.06390             11.48010
507.23849   597.76569   239.00000  19.34723             15.77870
505.56647   950.97110   173.00000  17.05158             12.92231
502.75362   1172.30435  69.00000   9.51791              9.24699
510.59664   630.34034   238.00000  21.68221             14.07233
507.43878   115.97959   98.00000   12.15536             10.27862
510.52800   285.63200   125.00000  14.28332             11.20212
517.30928   346.01031   194.00000  19.80592             12.47545
517.11290   873.24731   186.00000  18.76932             12.81770
515.46992   1163.70301  266.00000  23.01530             15.08964
521.28740   316.52756   254.00000  24.32653             14.10158
517.60987   84.60987    223.00000  18.84989             15.16632
515.39640   894.63964   111.00000  12.83560             11.15443
514.98837   1201.46512  86.00000   11.90356             9.25881
514.91549   941.15493   71.00000   10.92357             8.34856
519.13462   1001.90385  208.00000  23.81862             11.28327
522.60744   544.86777   242.00000  21.00565             15.52553
523.28042   921.30159   189.00000  21.91360             11.28192
519.01648   1053.33516  182.00000  21.41802             11.20217
523.44041   138.56995   193.00000  17.10482             14.38965
525.34672   664.45620   274.00000  21.61489             16.16192
526.20093   422.99065   214.00000  19.84004             14.16479
525.26119   580.80970   268.00000  20.29827             17.04372
524.35833   1211.73333  120.00000  19.33647             7.99013
527.00000   1385.35160  219.00000  20.10342             13.93044
526.14286   989.06494   154.00000  14.67947             13.40729
525.96552   279.88966   145.00000  16.74540             11.13608
527.81111   365.97222   180.00000  16.01502             14.31403
533.40314   399.16230   191.00000  24.55757             10.12892
530.34555   896.56021   191.00000  21.58533             11.81447
534.66667   533.98268   231.00000  19.84149             14.93290
534.88542   1455.62153  288.00000  25.33655             14.49527
535.00606   250.62424   165.00000  17.28543             12.22998
536.99265   872.55147   136.00000  16.95480             10.37631
544.19583   417.80000   240.00000  28.82472             10.90329
538.42953   1033.51678  149.00000  16.83005             11.28495
540.19431   814.61611   211.00000  18.20496             14.81469
542.98261   886.41739   230.00000  22.06071             13.34468
542.07422   931.71875   256.00000  26.88231             12.19837
542.53793   1203.35172  145.00000  20.24351             9.33245
540.26087   1213.30435  115.00000  15.23472             9.92722
544.11667   315.89167   240.00000  18.21066             16.86711
543.40571   591.93143   175.00000  17.74374             12.59045
546.19824   209.16300   227.00000  19.26699             15.19195
544.96078   187.39869   153.00000  16.16256             12.17926
551.93846   610.14231   260.00000  27.24976             12.31965
545.23485   828.82576   132.00000  13.65930             12.37523
547.53672   969.24294   177.00000  19.29527             12.01850
547.14198   1058.98148  162.00000  19.25704             10.85933
557.87218   844.91479   399.00000  33.18361             15.85854
551.76136   1087.61364  264.00000  25.92448             13.08541
549.71186   356.10169   177.00000  17.60261             12.82913
550.81507   381.50685   146.00000  16.01928             11.65188
551.40828   1039.63905  169.00000  15.03951             14.62335
553.32573   705.74267   307.00000  21.67963             18.13141
550.24359   1217.33333  78.00000   11.54045             8.81075
551.32955   961.34091   88.00000   13.78395             8.27078
553.51961   1871.58333  204.00000  18.10034             14.42036
552.75000   818.89773   88.00000   11.59878             9.74824
556.39459   674.57838   185.00000  17.60198             13.48602
559.31034   538.67816   174.00000  18.76237             11.83383
555.76812   1223.02899  69.00000   10.90044             8.11258
559.97030   996.99505   202.00000  17.66771             14.71027
561.41892   247.08559   222.00000  17.61980             16.55309
559.75824   1109.16484  91.00000   13.23433             8.90543
562.57778   1233.50556  180.00000  16.61694             14.30625
565.11111   149.67490   243.00000  19.62262             15.89557
564.84701   176.63806   268.00000  18.78802             18.26511
569.68810   277.81672   311.00000  25.19746             15.81273
567.42979   403.08936   235.00000  23.13366             12.96400
568.06926   722.29004   231.00000  21.93182             13.57347
569.70455   653.86364   220.00000  22.08181             12.76676
568.76506   883.83133   166.00000  21.81234             9.91003
569.48621   1362.48966  290.00000  21.87468             17.44519
568.76757   313.08108   185.00000  17.67528             13.36874
569.90871   464.34855   241.00000  19.52250             15.84567
570.26582   53.29536    237.00000  20.31656             14.93848
570.58219   1105.11644  146.00000  16.13219             11.71243
575.75207   491.72452   363.00000  23.48838             20.45364
573.13216   988.19824   227.00000  17.81334             16.43078
578.63863   522.14953   321.00000  28.64016             16.12793
575.29534   701.05181   193.00000  17.32811             14.28568
576.73359   932.01931   259.00000  21.21659             15.55127
583.15244   965.34756   328.00000  28.62001             15.62534
572.18367   1215.83673  49.00000   8.97631              6.93486
575.08955   1228.47761  134.00000  14.39913             12.01953
578.14126   1532.80297  269.00000  22.46928             15.27947
583.54733   1061.54321  243.00000  23.92501             14.04305
582.12705   1156.98770  244.00000  21.03709             14.85006
585.82843   999.45588   204.00000  19.36164             13.79390
591.07916   876.82586   379.00000  26.99038             18.67851
588.43719   632.63317   199.00000  20.53378             12.34377
587.73462   1516.21923  260.00000  19.89421             16.69597
587.90341   744.23295   176.00000  17.59951             12.75517
587.96578   329.69582   263.00000  23.85367             14.12052
593.46557   783.88525   305.00000  26.42567             14.91964
589.93684   135.24737   190.00000  16.08573             15.16770
