# Filename: Nuclei_416_ctrl_004.npz
# Voxel size (nm): (108, 108)
# Area quantity: voxels
# Num nuclei detected: 670
Y           X           AREA        MAJOR_AXIS_LENGTH    MINOR_AXIS_LENGTH
19.23511    950.60502   319.00000   26.72783             15.43957
25.03139    1113.78475  223.00000   18.64085             15.29718
39.22374    679.02283   219.00000   19.04090             14.67191
46.51290    963.90323   310.00000   22.57893             17.57272
45.57843    478.63235   204.00000   17.20937             15.36765
68.51777    742.27919   197.00000   22.24805             11.82081
75.73913    503.63285   207.00000   20.27874             13.16929
76.58427    533.97378   267.00000   21.65784             15.80821
90.47119    871.81017   295.00000   23.38982             16.12160
106.89266   937.83616   177.00000   28.22737             8.47611
106.96667   760.34583   240.00000   20.09056             15.24810
111.93902   1877.98780  82.00000    11.67726             8.95349
117.97938   1019.32474  194.00000   21.71454             12.01807
119.18692   1186.85981  214.00000   19.59456             13.98271
125.06803   867.10204   294.00000   24.86908             15.22828
129.60263   1070.99211  380.00000   28.68247             17.00926
127.62774   1866.25912  274.00000   19.47579             18.00082
136.77358   905.66981   318.00000   25.90800             15.71034
136.86851   1215.04844  289.00000   22.97410             16.09448
145.67969   194.29297   256.00000   23.20555             14.17039
153.73462   501.20769   260.00000   24.22526             14.03939
155.85088   987.40351   114.00000   13.32842             11.00029
166.43627   788.73039   204.00000   26.42272             12.75039
164.74439   584.17489   223.00000   21.15331             13.99577
171.06410   422.28205   312.00000   24.98699             16.28131
174.55870   203.49393   247.00000   20.02963             15.88079
179.05031   1036.52201  318.00000   21.35727             19.06876
177.69362   1245.43830  235.00000   18.61056             16.08221
189.89455   1205.14909  275.00000   30.20466             11.84704
199.24667   623.51111   450.00000   41.76363             14.09103
202.16062   800.13990   193.00000   17.85442             13.94573
204.48529   713.33456   272.00000   20.46385             17.03529
207.05574   1116.23934  305.00000   22.36568             17.46425
206.98605   1628.23721  215.00000   18.72958             14.92685
215.32166   664.93631   314.00000   26.42062             15.16957
209.43636   1603.09091  55.00000    8.95472              7.89807
225.01554   1704.26684  386.00000   25.12499             19.60031
224.90146   443.41971   274.00000   19.61579             17.83252
223.45775   742.37676   284.00000   26.23335             14.08992
225.62722   986.01183   338.00000   30.30281             14.39713
229.67094   221.38034   234.00000   20.77698             14.56714
234.37821   763.80769   312.00000   24.04960             16.71689
236.34602   957.81315   289.00000   26.22969             14.26272
239.23239   864.41197   284.00000   24.46155             15.53994
240.21849   1088.59664  357.00000   25.35954             18.08238
247.23368   1229.38144  291.00000   20.49901             18.19968
254.74828   1710.08621  290.00000   21.18484             17.60096
261.42202   1361.50000  218.00000   19.93613             14.07823
275.82450   751.22185   302.00000   30.88395             13.05011
269.83744   1236.69951  203.00000   17.14340             15.11727
278.91975   251.75309   162.00000   20.69610             10.10196
283.15057   1316.90341  352.00000   22.78022             19.87585
289.43042   976.31068   309.00000   25.06133             15.77565
290.95600   1347.73200  250.00000   19.10557             16.72378
300.84912   1250.67368  285.00000   21.30285             17.33979
304.55082   939.22951   305.00000   21.31660             18.45075
304.76000   909.34000   250.00000   20.97403             15.27583
315.89039   539.96796   593.00000   41.18162             19.05350
316.80255   487.45223   314.00000   27.27834             14.78237
318.96762   643.16952   1050.00000  68.55628             20.47572
322.45349   1065.76163  344.00000   27.92039             16.02240
325.21698   1359.60377  318.00000   27.30266             14.91709
324.13636   1151.67576  330.00000   27.55281             15.44108
325.05036   788.75899   278.00000   27.16682             13.28552
329.83333   726.03704   324.00000   28.36194             14.64555
328.42779   842.00272   367.00000   33.56387             14.88041
332.69960   703.84190   253.00000   20.62522             15.77753
336.20504   1426.70863  278.00000   22.61419             15.91544
337.91892   261.56757   259.00000   22.67642             14.70624
338.29474   1246.76491  285.00000   20.87040             17.42728
344.39922   680.23256   258.00000   20.42257             16.32707
345.94800   776.57600   250.00000   24.70664             13.11512
341.29508   914.94536   183.00000   16.29403             14.44013
347.68464   1100.23450  371.00000   30.93434             15.45962
348.73016   1340.53651  315.00000   22.80081             17.58688
351.50149   1218.77313  335.00000   29.92285             14.96272
350.56471   639.10196   255.00000   21.28070             15.34021
349.36453   857.10837   203.00000   18.99199             13.73734
351.87558   880.49770   217.00000   23.91935             12.66747
358.04255   1259.44681  376.00000   26.55706             18.20712
357.32710   971.61682   214.00000   20.65470             13.28813
359.05802   1003.37543  293.00000   26.69039             14.10504
359.91447   916.61184   152.00000   15.55895             12.44871
363.77848   939.37975   158.00000   20.80416             9.71718
367.70695   1156.76435  331.00000   27.51971             15.63145
360.66667   1681.09524  84.00000    11.32023             9.47307
364.10177   854.84071   226.00000   19.88137             14.60210
374.82866   1210.03738  321.00000   33.87079             12.45617
373.91549   826.88263   213.00000   21.14715             13.06156
376.95286   559.38384   297.00000   25.61002             15.81532
374.40152   1046.89394  264.00000   20.60286             16.36438
379.01754   815.54386   171.00000   19.77768             11.10032
383.78780   450.81220   410.00000   27.55645             19.33381
381.74608   726.76176   319.00000   25.61800             16.13689
382.84395   756.12739   314.00000   28.23396             14.29455
385.22483   72.16779    298.00000   24.62712             15.50851
389.57534   702.13356   292.00000   23.25230             16.05797
388.25234   989.07165   321.00000   23.54339             18.52296
395.45373   276.23582   335.00000   26.40277             16.27486
394.47273   1313.12727  385.00000   24.99800             19.71440
393.88492   861.16667   252.00000   27.91036             12.08857
398.92500   804.30417   240.00000   22.54219             13.83519
398.97004   1828.89888  267.00000   19.22433             17.72490
408.30909   792.75273   275.00000   35.09219             10.98009
403.49749   913.31658   199.00000   20.72497             12.31609
401.91061   648.10056   179.00000   17.66868             12.89483
406.53082   1014.63699  292.00000   29.56189             12.64796
399.55932   839.72881   59.00000    10.70030             7.02533
409.68924   966.72112   251.00000   27.00926             12.17719
410.95633   779.70306   229.00000   21.79356             13.85015
415.58824   662.49135   289.00000   24.78170             15.03207
413.97340   836.10638   188.00000   21.12874             11.37097
421.70567   737.02837   282.00000   27.76268             14.08703
428.55375   1368.29642  307.00000   36.20628             12.58943
422.73852   642.28622   283.00000   24.52388             15.51716
423.12275   821.93413   334.00000   25.26421             17.08369
416.53571   763.28571   56.00000    8.94419              8.05982
425.51705   808.86364   176.00000   19.74907             11.80290
440.25000   594.74638   276.00000   34.02495             11.44545
431.98851   841.29885   87.00000    13.63156             8.32474
437.60667   869.70667   150.00000   19.63787             9.84930
436.19259   922.33333   135.00000   14.65275             11.99227
441.98656   1149.20699  372.00000   25.17152             19.01066
438.76168   699.62150   214.00000   18.15792             15.26664
436.95604   1311.00000  182.00000   18.85283             12.56767
441.90114   886.86692   263.00000   20.47080             16.45656
447.30818   1040.61321  318.00000   26.18360             15.60730
451.53750   757.31250   320.00000   28.08964             15.00290
454.44915   662.31921   354.00000   28.78076             15.83197
453.25000   876.51351   148.00000   15.64020             12.10774
457.05556   1916.21605  162.00000   15.91644             13.03723
463.32342   1672.19331  269.00000   19.78065             17.43477
468.58457   786.98220   337.00000   24.08077             18.28483
468.25000   688.87500   136.00000   15.03712             11.60323
471.83041   16.64327    171.00000   16.56769             13.24083
470.23037   725.01571   191.00000   18.51571             13.30202
474.52215   1886.32278  316.00000   22.67676             17.96449
468.31250   884.18750   16.00000    5.14945              3.91895
484.09524   1085.90476  420.00000   33.97069             16.49206
479.56686   1023.79942  344.00000   26.95197             16.41587
482.82099   977.61111   162.00000   22.62158             10.54084
483.52191   723.45020   251.00000   27.01011             12.18713
490.66667   1204.76984  252.00000   26.61542             12.34338
490.09722   1481.94097  288.00000   19.29278             19.10711
489.75000   716.55682   88.00000    14.36347             7.85684
495.09091   774.68775   253.00000   29.81901             10.95932
503.84375   578.01389   288.00000   37.20981             10.10956
501.68803   907.98718   234.00000   24.95888             12.55309
503.99695   1209.45427  328.00000   34.30015             12.65692
506.50000   225.18421   304.00000   25.81765             15.42932
503.71654   2027.85039  127.00000   14.29644             11.51033
512.50853   1713.67577  293.00000   23.86289             16.00273
512.35842   769.64875   279.00000   24.00347             15.08652
520.71345   121.85965   342.00000   29.86485             14.93004
521.22286   470.87714   350.00000   28.11699             16.19413
523.29268   534.44715   123.00000   15.32290             10.34628
528.14535   851.85756   344.00000   26.45963             16.69750
523.88889   950.92593   54.00000    9.32470              7.41532
534.45817   1087.15936  251.00000   27.93781             11.62910
530.75207   778.94215   121.00000   15.19407             10.43376
538.17167   606.07725   233.00000   19.06299             15.67429
545.56119   1101.74328  335.00000   31.97260             13.55166
542.07843   323.29412   153.00000   21.27843             9.45685
538.49697   701.12727   165.00000   21.32738             10.31321
544.42718   811.55340   309.00000   22.81325             17.66850
544.12755   724.73980   196.00000   18.46337             13.56335
553.10000   296.04615   390.00000   28.23249             17.94305
545.31193   713.91743   109.00000   14.24765             9.95214
547.15556   447.69877   405.00000   43.62710             13.44336
551.87243   353.05761   243.00000   21.95338             14.13541
555.01038   895.95502   289.00000   25.61427             14.82306
552.28571   126.93197   147.00000   16.15298             11.64615
554.83544   1958.40506  79.00000    12.16001             8.29594
563.17230   1321.69257  296.00000   23.85424             15.98018
566.61415   617.82958   311.00000   22.58592             17.90598
577.32668   689.21696   401.00000   25.88407             19.80336
584.14642   722.47664   321.00000   29.86006             14.10244
577.83660   822.80065   306.00000   23.45322             16.76114
576.56338   848.69366   284.00000   21.53656             17.66566
576.73333   264.72000   75.00000    10.50751             9.14768
580.91822   881.64312   269.00000   23.15589             14.91319
590.82637   912.20900   311.00000   35.76300             13.10778
594.66782   1139.33564  289.00000   31.05688             12.28662
596.56593   859.21703   364.00000   27.11881             17.32463
593.76744   751.79651   172.00000   18.43561             11.98820
600.29668   1000.73657  391.00000   25.43999             19.96383
602.94332   797.51417   247.00000   18.49732             17.04094
613.02165   1028.88189  508.00000   28.93337             22.44467
614.80494   844.17284   405.00000   44.74968             11.82982
620.89247   285.60215   372.00000   23.12465             20.69324
622.08012   665.15134   337.00000   30.54268             14.37085
625.97238   945.59116   362.00000   31.80652             14.78917
623.47489   928.05936   219.00000   24.16484             11.61378
628.11330   963.60099   203.00000   23.92634             11.02388
628.22034   1092.86653  472.00000   32.73382             19.04707
622.72727   314.12727   55.00000    8.88929              7.98888
626.89807   772.61708   363.00000   36.74389             12.76412
646.36855   759.70025   407.00000   37.20887             15.27849
642.17241   266.41379   58.00000    9.29116              7.95530
651.50583   957.55711   429.00000   26.25322             20.98646
646.51613   1070.69032  155.00000   16.90011             11.73013
649.93269   1037.22115  104.00000   14.05509             9.54661
652.06306   846.93243   222.00000   23.72813             12.03941
662.54545   1082.46875  352.00000   43.21489             11.33646
660.60063   923.17925   318.00000   25.22516             16.62979
656.65203   902.44932   296.00000   33.05414             12.17382
663.25000   1103.87363  364.00000   27.24388             17.08765
662.04301   1364.96774  93.00000    12.99711             9.13324
665.07080   1335.38938  226.00000   17.29400             16.81142
668.86364   1316.71818  220.00000   24.74810             11.39377
669.36538   1289.59615  104.00000   12.53898             10.64955
673.26144   885.26144   153.00000   20.89311             9.55394
678.71400   703.89047   493.00000   53.41409             12.87125
669.25000   1302.52778  36.00000    7.10089              6.47290
676.91124   999.85503   338.00000   25.36051             17.16825
684.57692   788.06410   78.00000    10.67517             9.30582
689.06648   825.56233   361.00000   32.20268             14.55779
688.63008   1309.88618  246.00000   21.28832             14.80127
698.19910   661.86652   442.00000   29.76183             19.09093
691.97281   1224.51662  331.00000   29.35579             14.78744
686.42308   1352.69231  78.00000    11.40157             8.80471
700.91117   637.96848   349.00000   21.97213             20.38302
701.71583   172.81655   278.00000   27.19013             13.22913
705.85448   1021.35075  268.00000   25.28603             13.55736
702.40000   772.00000   45.00000    8.71604              6.56282
707.81283   830.01070   187.00000   21.82523             11.07369
709.36123   805.96476   227.00000   26.93429             10.86138
721.59695   1316.03486  459.00000   31.11390             19.07145
731.26099   664.30220   364.00000   30.39449             15.31493
731.51364   998.71818   220.00000   21.35585             13.30070
734.30233   1144.02326  215.00000   19.05836             14.38203
734.05488   907.14634   328.00000   28.63836             14.66835
740.54808   168.08894   416.00000   31.52835             17.25798
749.44541   872.98908   458.00000   37.25566             15.91575
747.99095   1013.75566  221.00000   18.22292             15.59674
744.98718   1129.41026  78.00000    13.32140             7.64257
758.48654   844.22115   520.00000   33.00068             20.48604
759.96984   1313.86775  431.00000   28.78160             19.39175
759.87188   1513.86250  320.00000   26.65020             15.53872
763.07099   1218.83333  324.00000   22.09882             18.74208
764.56438   1285.30137  365.00000   30.95359             15.34175
766.01449   435.43478   414.00000   28.49049             18.96725
762.44000   932.80000   25.00000    6.45922              4.86425
775.86262   360.31949   313.00000   27.16071             14.80144
771.85526   1002.20395  152.00000   16.40872             11.83062
786.55422   615.84096   415.00000   30.32482             17.87566
783.86269   1212.44179  335.00000   24.84418             17.27595
783.48744   1396.79397  199.00000   18.16682             14.03365
785.64759   1443.33133  332.00000   32.98049             12.94155
791.25364   1554.10787  343.00000   28.49360             15.44995
791.72603   258.64384   292.00000   23.78476             15.84988
789.66953   1345.16309  233.00000   21.99269             14.10637
786.91351   1379.89189  185.00000   17.67750             13.53192
798.46269   642.32836   335.00000   21.30996             20.42550
793.85752   757.26649   379.00000   36.91548             13.31603
807.07971   1802.09783  276.00000   21.46932             16.44232
807.88889   1298.42460  252.00000   19.95869             16.16670
810.22961   761.99356   466.00000   36.89109             16.40022
807.31507   902.02740   73.00000    11.25399             8.29388
813.73292   1403.46894  322.00000   30.83475             13.70268
811.19565   222.71304   230.00000   17.89909             16.50050
818.46269   525.56716   402.00000   27.32757             18.93205
823.77101   608.48950   476.00000   39.95922             16.22944
816.64948   568.34021   291.00000   25.51801             15.61114
812.07407   619.59259   27.00000    6.42150              5.26541
821.14716   1873.81940  299.00000   21.66784             17.66592
827.64344   1295.14754  244.00000   21.76809             14.44597
829.07742   1508.96452  310.00000   22.31803             18.10389
832.09459   353.71351   370.00000   24.55985             19.60987
827.96154   1326.07692  52.00000    10.33499             6.38451
838.99051   1490.11076  316.00000   30.29073             13.49901
844.36842   1601.80567  247.00000   33.14897             12.54261
837.44876   1256.94346  283.00000   22.90854             15.87349
839.21951   501.12195   41.00000    8.17266              6.49981
849.43354   1376.27215  316.00000   26.78657             15.12675
856.56535   1419.47416  329.00000   25.53789             16.54740
854.97872   1333.19149  94.00000    12.70913             9.88073
856.58065   1054.45161  31.00000    6.42575              6.06314
863.15183   1499.47120  191.00000   17.02669             14.35353
861.39506   700.59259   81.00000    10.33085             10.00356
877.94033   197.51029   486.00000   32.79785             19.91783
869.60000   1358.10000  230.00000   28.14174             11.95211
876.37226   467.73236   411.00000   28.76604             19.22345
884.62679   844.26077   418.00000   30.60071             17.56771
888.07289   900.06122   343.00000   26.78029             16.44322
890.15868   157.20060   334.00000   23.12852             18.47544
891.79401   1298.63296  267.00000   26.71137             12.86337
888.47222   219.04630   108.00000   12.64870             11.20684
899.56923   1462.36308  325.00000   28.11323             15.07281
901.24706   826.98824   85.00000    11.38277             9.70601
906.56897   382.40690   290.00000   27.79321             13.37053
905.54815   1508.37778  135.00000   16.30983             10.62607
911.47904   201.76647   334.00000   31.03978             13.76403
914.25570   942.31139   395.00000   35.31242             14.58194
913.01017   893.42034   295.00000   20.95837             18.46754
910.41096   1205.93151  73.00000    11.70689             8.06865
923.46667   1200.12222  270.00000   20.51220             17.08194
927.65385   1641.34965  286.00000   24.14758             15.55095
933.17133   1263.78671  286.00000   25.51106             14.42471
930.06905   913.97698   391.00000   28.38701             18.13352
