# Filename: Nuclei_416_bidi_60x_021.npz
# Voxel size (nm): (108, 108)
# Area quantity: voxels
# Num nuclei detected: 1007
Y           X           AREA       MAJOR_AXIS_LENGTH    MINOR_AXIS_LENGTH
15.02381    1301.42381  210.00000  19.26042             14.00207
14.91667    1427.89881  168.00000  16.47902             13.06669
23.54098    1389.68852  244.00000  23.55584             13.28387
28.51698    1250.93208  265.00000  23.06483             14.71834
33.71429    1017.44082  245.00000  19.34132             16.25950
35.17500    980.32083   240.00000  20.67490             14.97815
34.48168    923.52356   191.00000  16.98975             14.35395
40.98830    1033.70175  171.00000  16.52607             13.29430
52.02778    867.17778   180.00000  16.23024             14.20388
60.05556    352.82778   180.00000  16.19979             14.21965
62.90099    1428.14851  101.00000  12.40419             10.44374
66.16746    1278.13876  209.00000  17.22678             15.47874
68.29365    1223.51587  126.00000  14.41564             11.26362
74.61600    1256.78800  250.00000  18.52107             17.29380
76.00820    1384.80328  244.00000  22.56218             13.85522
76.37561    1118.26341  205.00000  20.20016             12.94719
76.11050    1140.20442  181.00000  17.99542             13.16229
92.05238    1272.82381  210.00000  18.08109             14.83369
95.93727    527.76753   271.00000  22.10094             15.80535
106.60938   1097.45937  320.00000  22.19754             18.44319
107.27336   394.84083   289.00000  21.97276             16.76620
107.91282   1472.42564  195.00000  18.03278             13.80908
109.36082   1229.54124  194.00000  19.36821             12.80621
116.97107   1081.73967  242.00000  20.97133             14.83233
118.41209   1211.71978  182.00000  16.00289             14.51866
129.18357   882.92754   207.00000  17.45083             15.27098
135.63851   520.82095   296.00000  28.01268             13.58196
139.87705   1186.90574  244.00000  23.68791             13.88975
140.97484   711.64151   159.00000  16.94445             12.12624
151.16575   949.53039   181.00000  16.16653             14.38695
164.89804   1374.10196  255.00000  23.39046             13.99401
164.97653   343.17840   213.00000  19.82525             13.76326
163.88108   495.43243   185.00000  20.48329             11.70287
166.89575   518.20849   259.00000  21.06234             15.69948
165.77821   227.43969   257.00000  20.77144             16.02229
172.50384   1431.27110  391.00000  24.59729             20.74191
169.14010   1006.19324  207.00000  17.71826             14.98122
169.62100   453.23744   219.00000  21.38496             13.25735
171.58427   1082.58989  178.00000  17.86506             13.22455
175.55882   711.92857   238.00000  23.34156             13.07802
171.82759   1830.82759  87.00000   11.58168             9.60332
173.70588   1177.00000  102.00000  13.40696             9.79229
175.91071   1208.27381  168.00000  15.48533             13.83995
178.87831   496.03704   189.00000  18.17341             13.35108
179.18939   1271.46970  132.00000  14.64961             11.49758
196.47909   667.14449   263.00000  26.20284             12.89287
200.38365   501.37736   159.00000  14.84852             13.77611
198.00000   338.95652   46.00000   8.02895              7.42684
206.21622   744.44865   185.00000  18.37025             12.91021
213.91532   1243.88306  248.00000  20.08163             15.75645
218.51316   508.46711   152.00000  16.81080             11.62159
220.14706   674.31765   170.00000  16.87339             12.98366
222.47926   1449.32258  217.00000  20.92588             13.25443
222.96020   604.23881   201.00000  17.43876             14.73570
221.60769   1433.85385  130.00000  15.37294             10.96600
227.98010   260.55721   201.00000  19.01409             13.63555
229.88785   689.19626   214.00000  19.21395             14.29029
231.04598   1115.39655  174.00000  17.54955             12.71405
232.23353   297.40120   167.00000  18.69166             12.07313
233.85000   477.75000   180.00000  19.26944             12.21819
239.02119   412.44492   236.00000  18.50905             16.75759
238.53659   511.75610   205.00000  19.53320             13.49175
242.68396   747.46698   212.00000  21.30831             12.89291
245.85795   499.73864   176.00000  19.73663             12.43363
248.08268   1443.59449  254.00000  20.38668             15.95383
252.18140   106.71163   215.00000  21.07184             13.38516
256.25652   1151.06957  230.00000  22.59834             13.05416
256.47716   434.62437   197.00000  19.94828             12.60986
257.17216   636.51282   273.00000  21.29014             16.51408
256.93380   660.82578   287.00000  22.56079             16.24728
260.86765   731.50490   204.00000  19.87212             13.18179
268.78399   1314.79702  537.00000  34.17207             21.76008
263.46774   1252.33871  186.00000  16.56104             14.37322
268.43071   479.89888   267.00000  19.55538             17.43770
272.44554   642.69307   101.00000  14.42976             8.95365
275.66667   1411.35833  120.00000  13.89042             11.03437
278.12593   406.47407   135.00000  14.16170             12.29921
282.10672   189.07905   253.00000  20.52338             16.05951
282.15315   1169.51802  222.00000  20.68058             13.79926
288.65079   1451.88492  252.00000  22.56932             14.33452
291.63514   492.30631   222.00000  19.54356             14.55416
295.12556   1374.37220  223.00000  21.25260             13.44485
292.49738   1635.12565  191.00000  16.88621             14.46231
292.90728   1399.64901  151.00000  14.96971             12.92353
292.59649   1420.91228  171.00000  15.39902             14.23123
295.29845   284.94186   258.00000  23.98897             13.72303
301.48241   539.03015   199.00000  18.19439             14.09872
303.43646   1471.82873  181.00000  17.42148             13.35210
304.70139   567.95139   144.00000  15.97214             11.48349
308.04046   1528.36994  173.00000  18.88027             11.72622
309.18571   733.05714   210.00000  19.52667             13.81408
318.09052   295.09914   232.00000  20.81834             14.25258
317.73077   1480.20330  182.00000  18.51454             12.54468
320.44747   607.85214   257.00000  23.08902             14.38321
320.74597   1397.10887  248.00000  20.00110             16.04505
321.13580   239.08951   324.00000  26.65982             15.76028
324.08615   586.82462   325.00000  21.65715             19.22226
326.58369   488.89270   233.00000  22.74246             13.13627
325.50000   312.18023   172.00000  19.47686             11.32366
327.29487   1551.69231  234.00000  18.40813             16.21371
328.85526   1252.72368  152.00000  14.83901             13.14432
333.90385   1432.53846  208.00000  18.93157             14.04529
335.01058   161.58201   189.00000  18.16317             13.46916
335.54980   1163.77689  251.00000  20.42502             15.76541
337.56223   516.96996   233.00000  23.19049             12.92950
341.30374   430.34579   214.00000  20.11870             13.72622
344.05785   1272.10744  121.00000  15.20240             10.21039
347.29798   1219.78788  198.00000  20.24156             12.57291
356.16000   297.37600   125.00000  14.16501             11.38458
359.50988   143.72727   253.00000  19.86533             16.25742
359.66981   564.02358   212.00000  18.11441             14.97676
362.20312   1450.74479  192.00000  20.06753             12.33256
365.56777   585.06960   273.00000  22.50266             15.79121
365.73585   1467.52830  159.00000  16.08928             12.66524
373.25078   1200.04702  319.00000  26.01663             15.76510
378.88298   1167.97163  282.00000  27.23452             13.65036
373.97101   550.00725   138.00000  16.41622             10.94125
380.00362   1502.16667  276.00000  23.21275             15.23246
381.62698   1416.59524  252.00000  21.55502             15.04681
379.58993   528.71942   139.00000  13.80944             12.89681
393.12805   718.10671   328.00000  28.43002             14.89546
391.96791   1155.31016  187.00000  19.47362             12.27027
399.37025   1123.77848  316.00000  26.53819             15.44404
401.32240   256.51913   183.00000  17.13689             13.84624
402.93421   1413.41447  152.00000  15.27858             12.83333
408.02410   93.92369    249.00000  20.45890             15.63738
408.56098   1550.86585  246.00000  18.40925             17.08242
419.07162   1158.50398  377.00000  31.64277             16.22259
414.27528   1434.85955  178.00000  19.32065             11.75088
412.17526   1573.93814  97.00000   14.93293             8.43907
418.70386   1618.67811  233.00000  18.97699             15.68157
420.26506   1461.57229  166.00000  17.44296             12.43510
419.37500   1732.23684  152.00000  14.63129             13.44536
421.73964   1363.86982  169.00000  17.82526             12.26744
431.24342   1455.09211  152.00000  20.52798             10.16404
437.58824   1445.93277  119.00000  14.23491             10.68545
441.38150   1367.06358  173.00000  15.87203             14.01311
447.17603   697.07865   267.00000  19.22938             17.78364
445.75333   1598.30000  150.00000  16.71749             11.69981
453.87843   1117.00000  255.00000  20.82181             15.76606
455.76471   1099.41176  221.00000  19.97598             14.34307
464.01351   737.83784   148.00000  16.92495             11.30598
467.10526   339.29605   152.00000  16.04086             13.57069
469.53488   725.31163   215.00000  20.18927             13.88965
473.00331   1212.60596  302.00000  21.87305             18.13377
476.15126   1069.90756  238.00000  21.54325             14.29782
477.05854   1495.46341  205.00000  21.36434             12.35634
479.46721   493.92077   366.00000  29.82031             17.81042
479.08995   1103.42857  189.00000  20.44263             11.80189
483.15625   617.23438   128.00000  15.49584             10.69390
488.95817   1112.39544  263.00000  27.45044             12.29626
487.09589   1466.00913  219.00000  22.26055             12.58649
486.51196   1399.48325  209.00000  18.10861             15.45219
485.03043   1514.38261  230.00000  19.66223             15.11393
486.97619   1535.60714  168.00000  15.46177             13.92422
493.62192   1307.76712  365.00000  29.06739             16.35824
488.01754   1435.18129  171.00000  15.87195             13.89668
499.46188   832.43498   223.00000  21.85209             13.26077
502.66946   768.96653   239.00000  27.75622             11.01586
509.85581   616.16744   215.00000  18.66128             14.93921
514.49129   601.63763   287.00000  27.13198             13.81501
509.05310   1028.43805  226.00000  17.70900             16.30522
511.93249   1661.22785  237.00000  20.74042             14.71368
513.20884   191.00803   249.00000  20.93800             15.34509
511.15652   797.83913   230.00000  22.24057             13.22165
516.42857   1500.53175  252.00000  20.03432             16.22622
520.41754   156.34737   285.00000  20.03837             18.14338
521.07623   1448.36323  223.00000  18.49510             15.39133
527.31073   1090.52542  177.00000  16.06644             14.19947
538.38929   781.69286   280.00000  27.65186             13.25617
538.64883   271.23411   299.00000  24.16074             15.95826
536.71111   635.44444   270.00000  24.20475             14.41722
534.60902   1495.93985  133.00000  14.50351             11.75509
534.26950   1513.35461  141.00000  14.57430             12.33189
539.71038   579.74317   183.00000  16.13220             14.49777
540.96319   106.11043   163.00000  15.39137             13.54993
549.84431   473.90419   334.00000  28.21970             15.33186
544.49776   1096.70852  223.00000  21.18918             13.51067
545.62121   1467.11111  198.00000  18.41110             13.76104
550.37960   234.45609   353.00000  22.67454             20.35782
548.31441   563.45415   229.00000  18.22437             16.41504
546.56716   591.88806   134.00000  14.42944             11.88235
553.44538   45.74370    238.00000  20.67614             14.88342
552.95181   1804.01205  83.00000   14.20342             7.80836
559.61519   1067.76456  395.00000  27.04029             19.16080
556.29032   576.36774   155.00000  16.49299             12.00770
557.38542   1557.51042  192.00000  17.15762             14.32611
556.97285   1283.46606  221.00000  21.82008             13.00048
560.48858   530.20548   219.00000  20.26557             13.89618
565.50000   197.98729   236.00000  22.77263             13.30405
565.06757   517.66216   148.00000  14.29084             13.28817
564.55862   1663.75862  145.00000  14.46171             12.76618
570.33597   1254.53360  253.00000  21.60417             15.09094
571.83273   1084.30909  275.00000  25.88194             13.67797
566.57273   1846.99091  110.00000  13.12979             10.65641
574.81387   495.09124   274.00000  23.24421             15.07490
569.67164   731.33333   201.00000  19.46628             13.35505
572.62439   38.26829    205.00000  19.69772             13.34881
573.29843   1458.30890  191.00000  17.67581             14.29994
576.74675   1345.69156  308.00000  28.29461             14.17641
573.18966   1830.36207  116.00000  13.08133             11.31366
577.16667   1273.90667  150.00000  15.59719             12.30219
577.62295   1243.98361  61.00000   10.25406             7.56945
580.93243   1445.05405  148.00000  17.67038             10.75854
584.72100   589.47649   319.00000  22.15348             18.76552
577.71429   745.28571   28.00000   8.21322              4.62162
585.70635   785.04762   252.00000  21.66992             14.86388
588.99156   445.44726   237.00000  24.14982             12.65903
585.12593   673.51852   270.00000  21.21540             16.54229
590.00775   1143.75581  258.00000  21.47184             15.39824
588.56354   1334.27624  181.00000  17.62301             13.26776
590.27419   564.62097   248.00000  22.04965             16.30322
591.16940   1214.72678  183.00000  19.13719             12.33878
592.85088   1275.58333  228.00000  18.52654             15.83973
595.62284   194.35640   289.00000  21.49066             17.60472
595.16129   1246.38249  217.00000  20.25821             13.83144
596.94611   1465.01796  167.00000  16.17027             13.18423
598.67153   129.57299   274.00000  28.70605             12.21184
596.06803   634.76871   147.00000  17.42552             10.87059
605.07071   1257.14646  198.00000  22.74985             11.31731
600.49794   589.36626   243.00000  28.02007             11.71704
604.89362   502.83511   188.00000  18.86122             12.81539
605.78855   476.92952   227.00000  18.24888             15.95142
608.19249   641.24413   213.00000  21.78516             13.01900
613.25843   1193.34270  356.00000  28.95092             15.87231
613.16571   29.68571    175.00000  19.30599             11.77025
619.03050   1355.65577  459.00000  26.15534             22.61510
616.17033   463.02747   182.00000  17.76507             13.14219
617.88557   1135.23881  201.00000  19.72485             13.01883
618.43158   1404.61053  190.00000  17.55418             13.83365
620.68401   1010.44238  269.00000  21.24397             16.18280
627.28070   437.96842   285.00000  27.95156             13.44835
621.80328   766.46721   244.00000  20.42348             16.04551
622.25200   1030.10400  250.00000  19.72091             16.28473
625.26432   1312.37885  227.00000  22.37530             13.00770
625.47115   496.22115   208.00000  19.99658             13.26485
621.36937   1750.79279  111.00000  12.79414             11.31683
627.47692   948.30256   195.00000  20.52871             12.13138
625.51829   1125.28049  164.00000  16.86715             12.44660
628.52586   1448.74138  232.00000  20.38608             14.73500
625.92105   1861.15132  152.00000  17.40865             11.22727
630.08389   1387.14094  298.00000  21.01017             18.55650
630.26994   1167.30675  163.00000  16.23274             12.81242
639.72785   373.04008   474.00000  26.49991             25.11618
639.61395   1600.56279  215.00000  17.23218             16.04557
641.05941   1306.99505  202.00000  19.00107             13.67268
644.46690   1583.25436  287.00000  24.26488             15.12696
643.61017   1176.79096  177.00000  16.36286             13.80234
648.06250   1246.05515  272.00000  20.50628             17.26520
647.07656   1468.02871  209.00000  19.63305             13.93238
648.87108   1002.47038  287.00000  24.32891             15.09385
647.34615   1808.88942  208.00000  18.55640             14.45713
646.89796   326.66667   147.00000  15.30510             12.40584
650.78109   1705.56219  201.00000  18.60498             13.79708
654.54580   1322.11450  262.00000  20.25489             16.54325
657.98058   450.54369   309.00000  24.56513             16.17461
657.93750   752.77188   320.00000  22.69514             18.22596
654.88770   1224.87166  187.00000  16.25465             14.67091
656.36667   421.61111   180.00000  15.61709             14.70533
659.19388   317.65816   196.00000  17.31657             14.43748
660.57554   1452.33813  139.00000  15.43041             11.51836
660.75099   1510.09881  253.00000  20.98826             15.39226
660.90164   1424.16393  122.00000  12.84856             12.26358
664.59763   1435.44970  169.00000  20.27198             10.77261
664.67816   957.67241   174.00000  18.43907             12.14022
665.18182   1408.95694  209.00000  19.41346             14.38946
668.60987   718.03139   223.00000  19.77224             14.77628
670.12329   500.44749   219.00000  18.23301             15.28902
671.52209   1476.29317  249.00000  21.75600             14.73651
677.02899   1457.35266  207.00000  20.68052             12.79469
678.01266   737.42616   237.00000  28.11568             11.65977
677.96482   927.04020   199.00000  18.29569             13.97543
677.78571   1067.32418  182.00000  16.80558             14.36083
675.40556   1179.42778  180.00000  17.08775             13.56648
677.81421   1611.13661  183.00000  16.32755             14.52838
678.73797   954.39037   187.00000  17.14034             14.16474
683.76923   270.85830   247.00000  18.05554             17.49164
687.75676   1164.82770  296.00000  24.77689             15.50180
684.60699   1424.03057  229.00000  20.01730             14.78464
684.64024   453.03049   164.00000  15.73520             13.58894
685.97279   1547.52041  294.00000  20.57933             18.31721
686.08290   356.58549   193.00000  18.76243             13.29199
686.46460   317.92920   226.00000  20.89580             13.96233
690.75978   463.39106   179.00000  18.54889             12.40692
690.91845   1239.56223  233.00000  20.90305             14.23264
689.41736   222.37603   242.00000  23.88023             12.98534
688.42373   1318.96610  59.00000   10.24205             7.28169
694.55000   418.99167   240.00000  21.86008             14.13610
690.90722   1063.78351  97.00000   13.33278             9.37582
700.20677   785.84962   266.00000  20.68298             17.55537
693.36364   794.75000   44.00000   8.24744              6.75213
697.19283   816.08969   223.00000  19.48229             15.07364
701.80628   400.27225   191.00000  16.48176             14.80023
701.34783   1505.32609  184.00000  16.04654             14.67036
703.71233   311.93607   219.00000  17.37880             16.15009
703.18957   213.87204   211.00000  19.21399             14.03431
704.62439   439.48780   205.00000  18.29714             14.27222
705.52432   1623.06486  185.00000  17.25455             13.70257
706.18274   385.98477   197.00000  16.34553             15.45458
707.06957   1208.93478  230.00000  19.09503             15.51772
713.55375   1314.55700  307.00000  28.16400             14.05782
711.23137   830.15686   255.00000  22.67412             14.39250
712.24405   677.16071   168.00000  15.25368             14.14405
713.52889   1025.97333  225.00000  19.40535             15.02453
