# Filename: Nuclei_416_ctrl_60x_005.npz
# Voxel size (nm): (108, 108)
# Area quantity: voxels
# Num nuclei detected: 990
Y           X           AREA       MAJOR_AXIS_LENGTH    MINOR_AXIS_LENGTH
20.21341    750.69512   164.00000  14.82958             14.12883
38.51381    629.20994   181.00000  18.90895             12.62977
42.16667    773.26000   150.00000  15.61765             12.36350
65.15169    525.44382   178.00000  16.60667             13.82645
64.89320    590.40777   103.00000  13.68672             9.66053
70.65657    707.96970   99.00000   13.07650             9.72513
77.52222    650.35556   180.00000  15.48976             14.92176
79.69748    794.98319   119.00000  15.80726             10.45308
91.49462    618.29032   186.00000  20.56645             11.89086
95.26736    780.62153   288.00000  22.51612             16.38529
98.25316    560.79747   158.00000  18.14853             11.46871
105.08672   534.44715   369.00000  24.68504             19.16556
103.62500   386.49265   136.00000  15.46505             11.37045
117.12778   653.86667   180.00000  15.41546             14.89356
119.26087   781.89372   207.00000  20.10600             13.23902
117.82292   113.79167   96.00000   11.19489             11.10457
120.66901   559.26056   142.00000  14.22723             12.88903
136.71967   688.88285   239.00000  21.93306             13.89770
140.55849   1134.82264  265.00000  21.33673             15.95812
143.40351   650.67836   171.00000  17.78359             12.76868
147.30201   422.16443   298.00000  23.80013             16.26906
149.52964   624.26482   253.00000  21.66621             15.46437
150.84906   355.62893   159.00000  16.18115             12.55149
152.88028   557.63380   142.00000  14.60514             12.41896
154.41803   149.59836   122.00000  14.51166             10.72619
163.10714   212.76786   168.00000  16.02586             13.56930
173.85612   1136.98201  278.00000  28.83422             12.43196
168.58407   534.64602   113.00000  13.57344             10.82841
176.69828   562.21552   116.00000  13.37911             11.20528
183.72727   683.62500   176.00000  17.58300             13.59605
183.66667   195.94558   147.00000  15.88279             11.79675
193.86400   777.02800   250.00000  21.06486             15.15979
194.93182   1770.07576  132.00000  15.29440             11.07441
200.05195   807.90909   231.00000  20.38451             14.86744
201.13953   292.89302   215.00000  17.13842             16.16063
214.60593   545.98729   236.00000  20.59611             15.17886
216.41833   778.90040   251.00000  21.53638             14.95700
218.42778   346.40556   180.00000  16.07388             14.30710
217.78481   158.20886   158.00000  15.51161             12.99958
217.95429   184.07429   175.00000  17.80044             12.57684
225.76899   834.94304   316.00000  25.08677             16.25980
222.67500   109.30833   120.00000  14.57670             10.61016
227.36771   253.73094   223.00000  19.44777             14.64761
224.24638   290.26087   138.00000  15.00344             11.80870
228.39527   660.51014   296.00000  21.40582             17.74878
231.67380   488.17112   187.00000  17.48019             13.68376
233.98969   341.31959   194.00000  18.17630             13.62331
239.25893   791.89286   112.00000  12.49928             11.49274
248.83146   587.31461   267.00000  21.92724             15.68142
243.87611   1443.52212  113.00000  13.86609             10.55329
244.47899   416.38655   119.00000  13.03130             11.67008
258.33113   858.29801   302.00000  25.33967             15.32768
254.89683   258.98413   126.00000  13.94620             12.90732
257.47368   629.07566   304.00000  20.13382             19.45170
256.28571   421.18367   147.00000  13.93022             13.47085
255.65753   109.89041   73.00000   10.38025             9.14965
264.62857   281.19592   245.00000  18.85919             16.79964
261.96552   463.97414   116.00000  13.84002             10.82828
264.15730   536.25843   178.00000  15.90011             14.28807
268.01128   796.52632   266.00000  25.54293             13.98699
270.49187   565.65447   246.00000  20.08719             15.79416
269.09659   1715.97727  176.00000  19.60986             11.54145
272.32423   502.67235   293.00000  20.79979             18.07407
278.44898   1412.48639  294.00000  26.28877             14.25754
278.83071   298.44094   254.00000  20.80181             15.56289
286.11152   582.84387   269.00000  19.37135             17.83397
290.26994   1125.91411  326.00000  23.71236             17.62802
287.89723   211.24506   253.00000  19.19793             16.82135
288.45638   317.47651   149.00000  14.62005             13.07336
294.22868   274.23256   258.00000  23.01356             14.41225
291.74257   560.87789   303.00000  22.03971             17.99088
294.33818   253.24364   275.00000  20.33390             17.32975
296.94672   794.91393   244.00000  24.00566             12.95479
299.79646   1255.25221  226.00000  21.49444             13.52378
303.26053   904.72105   380.00000  27.14649             18.06597
300.92657   431.58042   286.00000  26.33241             14.12167
303.98834   509.09038   343.00000  24.28573             18.18132
303.63981   1301.53555  211.00000  20.17110             13.40429
305.04040   1273.02020  198.00000  22.85474             11.19037
310.46565   484.58397   262.00000  18.97794             17.68803
310.49275   54.94686    207.00000  18.24793             14.52670
317.75000   809.82456   228.00000  25.46304             11.42024
318.46512   1592.13023  215.00000  18.08278             15.17882
319.98680   1411.76898  303.00000  26.21531             14.99680
322.27273   1675.64935  154.00000  16.23370             12.13390
327.14545   907.01091   275.00000  22.04731             15.99014
329.15353   116.07054   241.00000  21.18393             14.80987
328.04682   959.32107   299.00000  23.04511             16.70043
329.53529   1217.54118  170.00000  17.38233             12.50772
331.94656   842.76718   262.00000  21.90293             15.38579
333.01739   1361.92174  230.00000  19.52789             15.00558
333.86607   1480.40179  336.00000  23.10221             18.63405
336.06545   1539.48000  275.00000  25.31314             13.88678
338.16432   435.46948   213.00000  19.33095             14.05986
337.99556   393.68444   225.00000  18.91049             15.29269
339.16431   882.24646   353.00000  26.02478             18.44657
338.38172   309.56989   186.00000  16.62687             14.70492
339.07738   354.12500   168.00000  15.78244             13.63809
339.64216   1253.76471  204.00000  18.57232             14.05231
341.28000   489.67556   225.00000  22.20759             13.14905
342.89706   853.58088   272.00000  22.31084             15.85447
341.42587   1008.37855  317.00000  26.77417             15.81497
344.84420   1125.56884  276.00000  25.45630             13.85974
343.78704   231.33333   216.00000  17.68485             15.81380
342.20408   418.74150   147.00000  15.59456             12.19230
347.80712   1089.35905  337.00000  26.40997             16.79226
345.58824   160.58403   238.00000  19.00260             16.20898
352.58086   1327.55116  303.00000  27.73069             14.04181
351.75000   117.56140   228.00000  20.94590             13.88924
352.35593   1201.86441  295.00000  26.57355             14.53365
351.58470   1636.75410  183.00000  16.79451             13.97066
354.64286   1044.64626  294.00000  21.68574             17.39102
354.97651   1171.49664  298.00000  20.97186             18.28001
356.42157   330.79412   204.00000  19.75335             13.26684
360.50847   413.45198   177.00000  17.68796             12.87232
371.66512   524.38605   215.00000  22.52013             12.30295
371.68085   1189.00000  188.00000  18.37099             13.03777
372.61702   326.69362   235.00000  20.78365             14.60063
373.33784   1619.95270  148.00000  15.97402             11.83426
375.73481   901.12155   181.00000  16.88538             13.86030
378.89668   276.40590   271.00000  24.45699             14.36146
392.99015   374.00000   203.00000  17.40867             14.87387
395.58824   349.47843   255.00000  21.66093             15.26875
400.66187   949.01799   278.00000  19.70651             18.10537
409.30588   383.33333   255.00000  21.30859             15.49049
407.41985   1222.44656  262.00000  24.58852             13.97560
411.57203   363.05508   236.00000  19.02325             15.85158
416.91373   1248.65882  255.00000  21.85736             15.29295
427.96029   908.68953   277.00000  28.12779             12.70536
432.86294   894.60914   197.00000  20.17803             12.51072
448.28400   1254.20000  250.00000  19.83074             16.10004
451.75972   405.52650   283.00000  24.51893             14.73608
453.65975   519.06639   241.00000  19.18612             16.12898
456.44800   328.90800   250.00000  19.03264             16.79369
461.56970   1301.43030  165.00000  14.81773             14.23826
477.93080   498.87889   289.00000  33.16080             11.77684
472.38934   904.72951   244.00000  18.50123             16.92442
470.48980   882.42857   49.00000   9.43592              6.55453
474.79412   1355.78571  238.00000  18.22157             16.65488
475.05970   326.91045   201.00000  17.90405             14.42137
475.69118   948.72059   68.00000   12.53378             6.93753
486.44512   940.54268   328.00000  24.82223             16.85733
490.61386   728.73927   303.00000  26.84506             14.57115
490.45907   1455.66548  281.00000  23.35965             15.34040
489.77632   1414.06250  304.00000  22.32552             17.52661
488.92718   1334.90777  206.00000  19.30437             13.63939
506.60209   869.90052   191.00000  19.21027             12.66076
516.64286   908.86364   154.00000  14.65675             13.45255
521.13393   486.91071   224.00000  18.98839             15.13834
522.12651   229.64458   166.00000  15.31392             13.81205
526.63745   871.05976   251.00000  24.42965             15.25704
530.47020   826.14570   151.00000  16.66032             11.80359
540.76824   851.94421   233.00000  21.55727             13.89682
545.97473   733.85560   277.00000  25.95094             13.74322
545.75294   909.00000   340.00000  25.01444             17.58161
548.97010   481.53156   301.00000  22.21429             17.67960
561.80569   869.92891   211.00000  18.37413             14.71822
561.66190   889.59524   210.00000  17.94075             14.92340
565.70238   827.37698   252.00000  22.40722             14.77890
567.60870   903.62609   230.00000  19.88113             15.02410
568.01587   941.65079   63.00000   11.15780             7.18193
581.46473   866.93776   241.00000  26.55506             11.79177
584.46023   901.07386   176.00000  18.36188             12.32520
591.32143   936.52381   84.00000   12.55142             8.57681
596.60119   829.89881   168.00000  17.37700             12.48610
602.46823   857.02341   299.00000  29.21679             13.28311
600.58125   737.95000   320.00000  24.36322             17.32882
601.97598   955.75976   333.00000  24.49329             17.40764
600.54369   900.50485   206.00000  17.72133             14.89710
615.96786   256.50000   280.00000  22.33646             16.04219
614.74586   436.16022   181.00000  17.78380             13.09188
624.16327   855.24490   98.00000   14.89110             8.46913
635.75986   279.63082   279.00000  23.52904             15.20650
634.57576   842.46212   132.00000  15.33272             11.05108
647.49583   875.80833   240.00000  19.60007             15.64766
652.76842   847.85789   190.00000  17.94940             13.67618
665.64526   907.84709   327.00000  24.48721             17.39260
662.04103   299.87179   195.00000  18.49163             13.52095
663.61809   236.62312   199.00000  17.22271             14.83301
665.13198   891.39086   197.00000  18.80528             13.44376
669.25970   734.61194   335.00000  24.29819             17.90778
668.16949   415.77966   177.00000  17.52778             13.06625
679.96405   855.65359   306.00000  29.22612             13.70074
673.05806   310.40645   155.00000  16.64977             12.25263
676.72222   265.80556   252.00000  18.36626             17.64058
679.97987   348.02349   298.00000  22.09179             17.32567
684.11364   314.88636   132.00000  13.96146             12.23251
687.85156   907.82031   256.00000  22.85860             14.73059
695.20297   232.28713   202.00000  20.91729             12.73078
696.76286   833.63714   350.00000  27.94191             16.41646
695.53881   890.04110   219.00000  19.57381             14.67307
696.92308   863.90769   130.00000  14.23613             11.81108
708.69674   403.71679   399.00000  23.32368             21.81485
716.44444   1144.98413  252.00000  19.27922             16.99313
716.79377   252.23346   257.00000  20.73630             15.83038
721.58242   948.20879   182.00000  20.40087             11.55248
730.74684   746.90823   316.00000  23.26851             17.96053
732.60905   902.47325   243.00000  19.23328             16.16437
734.33333   985.05714   210.00000  17.52066             15.37085
735.78924   958.09417   223.00000  18.30054             15.74303
741.94313   201.33649   211.00000  18.45643             14.72719
743.16818   338.44545   220.00000  19.32077             14.51859
747.55776   1007.31353  303.00000  23.70091             17.04218
745.64444   391.55556   180.00000  16.41032             14.15495
748.87368   460.66667   285.00000  24.95499             14.70558
750.97945   821.16781   292.00000  24.31362             15.74128
749.20089   680.95089   224.00000  20.23157             14.12694
753.17895   744.21404   285.00000  31.09392             13.37423
754.53571   1156.93929  280.00000  22.62939             16.14231
759.33121   274.50955   314.00000  28.99708             14.56412
765.45985   789.72993   274.00000  26.16256             13.64484
763.60190   900.24645   211.00000  19.56281             13.88604
767.78039   767.31373   255.00000  20.27523             16.03708
771.42453   355.18239   318.00000  26.24614             15.59555
767.69549   998.25940   266.00000  18.91710             18.00596
767.31875   679.71563   320.00000  24.96927             16.46409
774.26027   1023.66096  292.00000  20.02041             18.84435
779.69597   620.51648   273.00000  21.01076             16.76848
780.70326   515.94955   337.00000  29.49311             14.64821
776.82353   272.39216   51.00000   8.55226              7.56527
785.09635   373.69767   301.00000  24.01913             16.20535
782.96226   578.34340   265.00000  19.22528             17.61249
785.33484   784.06335   221.00000  25.67956             11.26182
783.55782   795.40136   147.00000  15.65245             12.11576
791.33610   202.42739   241.00000  19.19825             16.05619
797.53639   707.85445   371.00000  28.43428             16.82138
794.85000   1436.35000  100.00000  11.99870             10.64102
801.07942   1190.99639  277.00000  22.55353             15.76917
798.18868   797.20755   53.00000   11.11877             6.10141
801.39333   889.16667   150.00000  14.96326             12.77319
806.32051   1043.77778  234.00000  20.24939             14.79803
811.50612   374.88571   245.00000  28.55422             11.15412
808.03980   1172.17413  201.00000  18.31564             14.16980
812.48184   1221.36077  413.00000  26.63412             21.21682
809.67980   1286.15271  203.00000  18.35912             14.08780
805.63636   905.12121   33.00000   6.82268              6.19459
814.43446   552.95880   267.00000  19.31891             17.68647
808.06122   1474.55102  49.00000   8.53500              7.26967
816.51642   402.82090   335.00000  21.95893             19.55806
819.80435   1202.53261  276.00000  24.96624             14.25643
819.17826   747.90435   230.00000  20.76158             14.24101
819.10976   1305.16463  164.00000  15.56610             13.51772
822.58716   484.85780   218.00000  17.69817             15.72642
821.36818   1802.78182  220.00000  19.10493             14.82498
824.44841   638.78175   252.00000  18.34616             17.58817
823.70588   452.50865   289.00000  23.69131             15.66455
828.50196   583.75294   255.00000  20.58123             15.85872
828.27308   1154.53846  260.00000  21.71199             15.83338
830.40000   707.52000   275.00000  21.20872             16.66881
828.92366   1293.42366  262.00000  23.52198             14.62076
829.74157   1244.60674  178.00000  16.83573             13.62513
829.91304   1257.87578  161.00000  14.94291             13.74637
834.13402   227.19931   291.00000  23.24187             16.09184
834.91611   1113.70470  298.00000  22.07469             17.87820
838.05705   1190.59396  298.00000  22.60450             17.44669
839.76208   920.60967   269.00000  19.18733             18.03954
837.76687   1022.73620  163.00000  19.02691             11.15067
839.74684   1037.78059  237.00000  20.96988             15.25660
839.00000   1089.47977  173.00000  17.33868             13.32083
843.49643   1781.71786  280.00000  23.21160             15.43666
846.68317   1081.11881  202.00000  20.77263             12.53955
846.33891   992.23849   239.00000  21.50757             14.47371
846.46893   711.96045   177.00000  19.89532             11.43294
849.99187   1048.11382  123.00000  14.73637             10.72328
851.58678   1495.48760  242.00000  21.00103             15.12124
851.53000   506.86500   200.00000  19.50907             13.19281
855.29483   728.93009   329.00000  27.42533             15.48366
855.75920   1142.06689  299.00000  21.48111             18.22961
856.89418   451.83069   189.00000  16.77046             14.50187
856.77778   553.66667   225.00000  19.30884             14.96651
860.97525   400.83911   404.00000  31.28672             16.81125
856.23944   1316.63380  71.00000   11.02136             8.54989
862.93175   850.40059   337.00000  35.73221             13.58992
862.31148   917.59016   244.00000  20.50472             15.46987
862.91007   697.41367   278.00000  25.73455             13.88399
863.20996   990.25979   281.00000  19.91615             18.22973
857.02439   1110.56098  41.00000   8.58489              6.12762
865.40942   1341.94565  276.00000  22.76303             15.71990
866.47967   227.75203   246.00000  21.55736             14.64197
864.71264   508.20690   174.00000  16.96364             13.09466
864.66667   1190.00556  180.00000  17.00229             13.55439
864.81651   1038.26606  218.00000  21.74579             12.79406
868.12069   1755.06897  290.00000  23.72256             15.67141
875.14074   1136.72593  270.00000  29.67789             11.81902
873.38889   663.29365   252.00000  19.51817             16.69912
872.75168   944.44295   298.00000  25.08400             15.28288
877.68458   489.67523   428.00000  26.20795             21.34090
876.63725   1055.79902  204.00000  19.68015             13.41856
877.92398   898.07018   342.00000  24.14972             18.24107
873.50000   1083.16667  60.00000   10.32225             7.44357
880.78327   1183.11407  263.00000  19.93291             17.09248
883.25228   267.25532   329.00000  24.66300             17.33797
880.93464   1042.39869  153.00000  18.32032             11.43564
882.29221   1209.29221  154.00000  14.61981             13.68463
884.60729   1506.44130  247.00000  18.38349             17.31941
884.42405   1007.70886  158.00000  14.49549             13.88658
887.80303   1218.57576  132.00000  17.14231             10.47239
884.58824   914.11765   17.00000   5.18190              4.04120
894.67589   962.24901   253.00000  18.85439             17.51987
895.97436   1341.08547  234.00000  21.49994             14.03236
899.03067   1673.99080  326.00000  24.09187             17.34903
901.00000   229.36726   226.00000  19.91579             14.46142
902.54930   1098.16549  284.00000  22.52208             16.13317
903.89506   1073.15741  324.00000  24.69211             17.02718
