# Filename: Nuclei_416_bidi_60x_013.npz
# Voxel size (nm): (108, 108)
# Area quantity: voxels
# Num nuclei detected: 793
Y           X           AREA       MAJOR_AXIS_LENGTH    MINOR_AXIS_LENGTH
32.02740    1444.43836  146.00000  15.62375             11.95612
80.83537    1162.48780  164.00000  19.10367             11.09071
79.30872    1210.77852  149.00000  14.96538             12.79194
96.95098    1143.80392  102.00000  15.91444             8.19603
100.81366   611.20497   161.00000  20.36561             10.20117
101.25234   1240.80374  107.00000  12.83286             11.00385
104.91892   1203.86486  74.00000   10.30897             9.37669
121.42373   1066.29661  118.00000  14.45644             10.55826
121.66434   1167.30070  143.00000  15.37515             12.09369
132.87421   1218.82390  159.00000  16.07232             12.75805
137.80702   1152.83509  285.00000  23.88661             15.28280
148.01744   1420.58721  172.00000  20.31665             10.91788
150.76699   1078.82039  206.00000  22.92401             11.53543
149.19095   1252.55779  199.00000  17.94200             14.16630
154.22222   600.68803   234.00000  22.77539             13.37535
165.77381   585.60714   252.00000  22.51521             14.28951
159.52542   1126.06780  59.00000   9.07372              8.41048
166.71053   1312.05263  228.00000  23.46939             12.56893
168.44724   1096.71859  199.00000  20.69545             12.32862
172.57333   1080.48000  225.00000  18.46608             15.58561
177.93023   1434.10465  172.00000  16.95471             12.93655
179.50000   1168.41250  80.00000   10.97545             9.37108
182.05755   1253.72662  139.00000  16.05250             11.35703
193.93631   1057.86624  157.00000  14.95678             14.39195
226.32673   1191.14851  202.00000  18.58920             13.96263
223.29508   1804.60656  61.00000   10.95975             7.23023
225.97059   1180.23529  102.00000  13.82404             9.41401
239.73529   586.79412   170.00000  17.06895             12.86051
241.20000   1179.30526  95.00000   12.08184             10.02435
241.77922   1516.46753  77.00000   10.66400             9.55241
242.65217   1598.45217  115.00000  14.04742             10.59131
259.68690   1054.67093  313.00000  24.12252             16.64374
258.26582   1180.22785  158.00000  16.60226             12.21220
264.45149   1144.86194  268.00000  22.65018             15.17460
269.55507   1289.37885  227.00000  22.28659             13.11060
265.66000   1523.84000  100.00000  12.43472             10.27222
270.19209   1204.50847  177.00000  16.65117             13.72037
278.17323   1502.37795  127.00000  13.99308             11.58786
282.44643   1516.02679  112.00000  14.67858             9.72753
289.69397   1481.27586  232.00000  25.15384             12.16336
287.21302   1131.71598  169.00000  16.78595             12.88097
290.44144   1217.65766  111.00000  14.19985             9.95494
299.11207   1318.17241  232.00000  31.54595             11.42460
296.28000   1199.98667  225.00000  18.74594             15.31561
307.90977   1662.48120  133.00000  15.90749             10.72784
314.68023   1310.86628  172.00000  17.35419             12.65566
331.60751   662.90785   293.00000  29.81545             12.68205
324.11290   1227.53226  62.00000   10.65476             7.46156
329.08494   1499.98456  259.00000  19.20734             17.33102
331.94792   1606.40104  192.00000  21.63586             11.33680
329.94444   647.38889   162.00000  17.34405             11.93081
332.85317   1465.23016  252.00000  20.67972             15.59145
338.11957   1215.03986  276.00000  27.36388             13.16809
337.18410   735.20084   239.00000  19.08308             16.01789
340.00866   1122.74459  231.00000  21.53502             14.04611
339.57021   705.78298   235.00000  18.36728             16.33812
339.78286   559.97714   175.00000  16.83137             13.32879
346.63448   677.48276   145.00000  14.84383             12.50438
349.94472   605.57789   199.00000  17.92305             14.18206
352.21277   1775.97163  141.00000  15.94157             11.32349
352.76233   1227.99103  223.00000  19.31556             14.80863
355.82805   1100.89140  221.00000  18.72632             15.14733
357.83643   764.79554   269.00000  20.56065             16.92360
357.39535   589.98256   172.00000  17.48060             12.53524
361.19574   1476.77021  235.00000  21.90237             13.72009
362.37931   530.16379   232.00000  20.59144             14.39418
364.98571   620.69524   210.00000  19.20488             13.97847
366.09174   778.93578   218.00000  19.26946             14.62470
372.56981   637.80755   265.00000  23.67557             14.39145
375.74074   1100.48148  189.00000  17.82331             13.57557
382.78082   1571.36073  219.00000  19.21431             15.04622
385.50207   525.87967   241.00000  19.82146             15.65573
389.01005   1367.04523  199.00000  17.13807             15.04035
399.46429   515.77273   308.00000  21.48331             18.47455
413.79710   686.95652   276.00000  26.65968             13.23123
420.02844   1579.85308  211.00000  21.57930             12.52047
422.18391   77.62069    174.00000  16.74823             13.35840
430.08638   620.77409   301.00000  23.34540             16.72356
433.82840   52.53846    169.00000  16.11759             13.45475
432.95620   1747.32117  137.00000  13.88256             12.63707
436.70861   683.23179   151.00000  16.79833             11.44850
442.85398   1260.03982  226.00000  23.25468             12.52623
446.91398   609.55914   186.00000  18.72349             12.77467
455.22642   1728.04245  212.00000  17.78877             15.28821
458.71806   542.69163   227.00000  20.45395             14.24476
457.15493   56.31690    142.00000  14.87121             12.31785
470.07380   533.69373   271.00000  27.40337             12.96030
469.84831   605.18539   178.00000  19.17711             11.83573
474.15961   695.11401   307.00000  27.72199             14.44645
475.42231   591.31076   251.00000  21.94124             14.69315
472.36567   1702.82836  134.00000  16.09761             11.07852
476.24201   1619.53881  219.00000  19.62054             14.26527
478.46512   521.41860   43.00000   8.94756              6.10009
489.81818   1721.97521  121.00000  13.63930             11.30242
491.69697   546.70455   132.00000  13.71312             12.54300
499.44318   592.66477   176.00000  15.34771             14.63365
512.44286   702.62381   210.00000  18.13743             14.80646
524.71326   590.71326   279.00000  24.83756             14.40997
522.20737   565.94470   217.00000  18.67926             14.83016
533.23223   701.18009   211.00000  17.42565             15.53433
543.85366   490.81463   205.00000  19.49901             13.40727
545.18447   50.45631    206.00000  16.74638             15.68480
547.57848   1688.34978  223.00000  21.04594             13.67853
548.37288   1705.92797  236.00000  20.90296             14.54435
547.01778   471.17333   225.00000  20.08007             14.36549
549.28740   439.64567   254.00000  20.87118             15.79571
555.58621   62.98621    145.00000  15.43611             12.08609
558.41880   512.65812   234.00000  18.30562             16.38184
561.54545   575.46591   264.00000  19.38227             17.44698
562.63043   492.42391   92.00000   12.41842             9.53851
564.33036   712.75893   112.00000  15.74348             9.13602
569.31349   728.27778   252.00000  21.13624             15.38217
578.96419   604.01535   391.00000  30.49948             16.59901
572.58273   707.75540   139.00000  15.14543             12.03692
573.62150   396.57477   214.00000  18.62783             14.67294
577.33158   531.12632   190.00000  19.55211             12.41881
576.87970   1692.97368  266.00000  20.17424             16.88634
578.33108   488.67568   148.00000  14.65732             12.95300
580.25000   581.13830   188.00000  16.17922             15.02308
579.68000   1638.22000  100.00000  12.73201             10.03808
578.50000   633.37500   32.00000   6.77872              5.98323
585.36310   519.39881   168.00000  15.86312             13.49048
588.92488   382.16901   213.00000  19.11452             14.27508
589.09392   496.18232   181.00000  16.56707             14.17637
589.23111   565.53333   225.00000  20.07897             14.29710
593.25957   704.34468   235.00000  19.69660             15.23745
592.19760   400.50898   167.00000  17.31826             12.34156
598.78960   649.13861   404.00000  35.27979             15.63140
598.09605   1652.26554  177.00000  18.25349             12.41095
596.74167   60.26667    120.00000  13.87860             11.05044
597.59903   581.04348   207.00000  17.30860             15.49546
606.14286   1154.75940  266.00000  21.51236             15.89709
608.67376   453.70213   282.00000  26.73850             13.59602
612.19461   531.66168   334.00000  25.40639             17.42822
610.49767   1641.09302  215.00000  17.09967             16.12690
610.23370   351.98913   184.00000  17.91227             13.16504
614.52459   548.83060   183.00000  16.86102             13.88091
618.80460   60.42912    261.00000  19.97341             16.95486
616.80315   369.86614   254.00000  20.81169             16.03093
618.69663   405.83708   178.00000  18.66269             12.33649
618.93796   498.29562   274.00000  23.14188             15.12529
621.64417   588.67485   163.00000  16.65995             12.49116
621.51613   349.04839   124.00000  14.59844             10.90156
638.15082   1128.14098  305.00000  23.76090             16.51894
642.62703   481.59189   370.00000  29.80368             16.35671
637.53153   701.26126   111.00000  15.22586             9.30573
651.04545   732.68636   220.00000  28.16333             10.83017
647.95146   112.39806   206.00000  18.44605             14.29255
647.99432   379.14773   176.00000  17.61068             12.81922
650.35758   142.98182   330.00000  25.61697             16.60517
650.54959   358.76446   242.00000  20.35076             15.23677
652.04054   529.22973   222.00000  20.72237             13.68832
652.61017   392.98305   177.00000  18.17933             12.51630
653.80531   72.07522    226.00000  19.83813             14.53525
655.26484   506.47032   219.00000  19.15328             14.60084
656.05263   1391.16228  228.00000  19.16159             15.15821
659.24380   1698.40083  242.00000  19.74069             15.74718
658.11979   326.62500   192.00000  17.39629             14.07621
658.99029   342.64563   206.00000  16.86042             15.66912
660.19139   551.21531   209.00000  22.49105             11.86857
658.82927   1615.13171  205.00000  18.04284             14.51508
661.44554   455.08911   303.00000  26.47465             14.86043
660.27219   574.13609   169.00000  15.49893             14.00611
667.33735   1401.15060  166.00000  22.25271             9.70316
665.92810   1659.38562  153.00000  16.31580             12.12083
665.03571   1133.01786  56.00000   9.25641              7.76488
669.89655   563.05419   203.00000  16.54927             15.76278
675.94083   427.32249   338.00000  22.63878             19.07916
677.48364   1599.40364  275.00000  22.74816             15.87717
679.15196   65.88725    204.00000  16.94656             15.40327
680.71127   274.08099   284.00000  26.97442             13.52769
688.11228   1104.57193  285.00000  27.67319             13.16513
684.63918   1116.29897  97.00000   12.25544             10.04845
689.37220   585.44395   223.00000  19.90407             14.48305
687.81081   775.32432   74.00000   11.36811             8.31619
690.21053   799.94737   19.00000   5.31381              4.54908
697.73770   570.71311   122.00000  14.19246             11.09537
699.15695   1708.70852  223.00000  19.75567             14.58286
703.21774   318.05242   248.00000  21.39966             14.86369
704.89020   344.98431   255.00000  24.18333             13.64670
706.56410   492.40513   195.00000  17.42731             14.35510
715.20000   796.76129   310.00000  22.40681             18.78149
712.20779   368.36364   231.00000  20.81177             14.31414
717.49451   590.64835   364.00000  22.74046             20.48994
717.65094   504.93868   212.00000  19.68484             13.91102
720.05882   331.50980   204.00000  20.97022             12.41586
722.09655   354.22759   145.00000  16.44478             11.32034
723.74566   1394.10405  173.00000  16.63772             13.51818
720.90686   1710.24020  204.00000  21.03752             12.51697
726.05140   566.81776   214.00000  18.77233             14.61013
728.17391   366.39130   115.00000  14.50114             10.10899
731.99519   483.57212   208.00000  17.51364             15.21753
739.81865   364.56477   193.00000  18.82655             13.15250
745.63722   1378.62776  317.00000  30.53318             13.85032
739.54146   1394.78049  205.00000  17.11532             15.46621
740.67054   605.41860   258.00000  19.40434             17.00390
742.27451   576.58170   153.00000  15.30049             12.80960
744.27941   1623.11029  136.00000  14.19329             12.28297
745.61667   1710.01111  180.00000  19.37991             11.88553
746.15789   1728.82018  228.00000  18.66059             15.99526
753.53247   1610.10823  231.00000  26.85685             11.52049
750.74093   1658.30570  193.00000  19.02619             13.19894
746.00000   800.21951   41.00000   8.19933              6.39360
754.28753   1103.01272  393.00000  27.60228             19.05409
754.64220   489.91284   218.00000  18.66390             15.46179
758.53414   468.54618   249.00000  21.73735             14.68536
756.34177   581.91772   158.00000  17.22663             11.73980
751.95238   633.07143   42.00000   7.77423              6.81843
764.74132   346.74763   317.00000  27.21467             15.17545
758.45752   1630.16993  153.00000  16.96795             11.53524
761.85644   1688.64851  202.00000  21.26924             12.20153
761.64141   1755.62121  198.00000  17.90005             14.11364
762.75439   632.75439   171.00000  15.44983             14.21075
764.65672   1401.08458  201.00000  17.09315             15.00492
766.30705   533.53527   241.00000  18.48976             16.62631
768.57647   1663.58824  170.00000  18.82558             11.60590
768.27119   620.24294   177.00000  16.62384             13.55430
766.26316   655.55263   38.00000   7.79471              6.23957
771.69421   1617.28926  121.00000  13.72099             11.38828
786.00668   579.88641   449.00000  35.52531             16.21677
776.07971   1742.92029  138.00000  15.95101             11.15761
780.07042   519.27700   213.00000  18.67410             14.68861
781.69945   465.18033   183.00000  16.09220             14.77164
780.70323   1624.29677  155.00000  17.13859             11.57161
780.26087   1705.51304  230.00000  22.67735             12.95690
780.66667   1757.28369  141.00000  15.27362             11.88204
780.46939   618.75510   49.00000   8.82149              7.06693
784.77381   1396.40476  168.00000  16.22410             13.22356
787.06952   360.88235   187.00000  16.70519             14.39535
792.54959   1108.14463  242.00000  20.86314             14.78971
807.29491   819.45040   373.00000  44.46258             11.59257
791.61261   1409.25225  111.00000  13.48432             10.76434
795.77041   1651.36735  196.00000  20.87416             12.01536
794.02920   468.81022   137.00000  13.75816             12.80592
802.08901   457.07853   191.00000  16.27491             15.01522
806.17178   1612.12883  163.00000  15.04289             13.85701
813.64561   1096.44561  285.00000  24.83040             14.96163
814.43128   493.84834   211.00000  21.08907             13.05556
813.82273   354.13636   220.00000  19.47459             14.55067
815.59574   578.42199   282.00000  21.01643             17.62639
817.41797   541.77344   256.00000  19.74598             16.60323
818.22699   1602.61963  163.00000  16.44573             12.67890
819.71345   610.74269   171.00000  16.28314             13.50745
821.37719   506.28509   228.00000  18.62405             16.20341
824.57143   1684.42857  252.00000  20.97236             15.46722
824.54167   523.37500   24.00000   5.99090              5.14762
834.90449   477.23034   178.00000  16.20447             14.01660
838.16547   329.41007   139.00000  15.15326             11.84060
839.37083   497.42083   240.00000  20.63444             15.51298
839.92395   595.32319   263.00000  21.78260             15.43629
840.15455   1504.47273  220.00000  19.41627             14.57257
846.31111   72.30794    315.00000  26.75733             15.97344
843.00000   512.97368   266.00000  21.01486             16.40248
848.44402   1097.78378  259.00000  20.66440             16.06067
848.35577   1394.69712  208.00000  18.74304             14.16027
848.40476   1460.97024  168.00000  16.37211             13.10342
848.48168   1477.00524  191.00000  18.68853             13.10890
850.69655   323.33103   145.00000  15.72662             11.89082
851.16055   1558.76606  218.00000  19.15275             14.73040
850.94156   471.22727   154.00000  14.84813             13.28030
855.85348   612.40293   273.00000  22.25252             15.65358
853.50000   1652.05844  154.00000  16.93109             11.69239
854.91534   1535.85185  189.00000  18.48555             13.05740
862.67755   1700.48571  245.00000  23.34441             13.57068
860.31349   1439.02381  252.00000  20.47650             15.82909
859.67262   1617.58929  168.00000  16.56057             13.00550
866.64179   328.45149   268.00000  23.88194             16.59107
858.00000   806.11475   61.00000   9.90668              7.86824
865.37736   787.72642   318.00000  21.62943             18.77473
873.50730   1400.72263  274.00000  34.65993             10.51923
863.90909   1666.20130  154.00000  14.80102             13.29364
865.20000   443.47442   215.00000  18.18963             15.14468
869.58079   600.56332   229.00000  20.55568             14.22107
863.46512   624.72093   43.00000   8.61647              6.33394
869.86364   1600.65341  176.00000  15.94759             14.36220
874.63208   1646.25943  212.00000  19.76015             13.77554
880.07727   66.81364    220.00000  19.41441             14.45848
881.03030   588.93434   198.00000  17.93383             14.61669
884.32808   401.56782   317.00000  22.59296             18.61114
880.72917   837.68750   96.00000   13.07962             9.37306
883.78947   818.26316   57.00000   10.67041             6.88570
889.19767   1719.94186  86.00000   10.74902             10.54173
894.93789   1710.22981  161.00000  16.99001             12.16544
901.28364   850.38909   275.00000  21.54634             16.61725
896.22556   1727.79699  133.00000  13.16260             12.92467
898.99655   1057.38966  290.00000  21.12591             17.54710
895.85000   1383.85000  20.00000   6.10574              4.24264
900.05882   122.50588   85.00000   12.76892             8.43271
900.50000   943.50000   40.00000   8.31983              6.03162
909.33544   612.82278   316.00000  22.69295             18.10219
905.37559   377.94366   213.00000  19.48116             13.98852
909.92834   1084.07166  307.00000  24.81809             15.86350
907.15183   1382.82723  191.00000  22.36236             10.96877
910.68201   411.92887   239.00000  18.01133             16.95829
911.43874   1716.25296  253.00000  24.27973             13.58576
914.47147   55.61562    333.00000  22.60358             18.82330
908.70909   1104.81818  55.00000   9.02815              7.76651
911.70455   630.09091   132.00000  16.18403             10.45349
915.71084   310.46386   166.00000  17.87241             11.94117
916.59031   97.45815    227.00000  19.33316             15.04267
918.57778   355.12444   225.00000  19.34665             15.01385
920.26250   291.56875   160.00000  20.13198             10.49405
923.01145   960.51908   262.00000  22.54578             15.06172
920.40714   1359.40714  140.00000  16.61836             10.83433
920.66667   622.36508   63.00000   10.55641             7.67295
