# Filename: Nuclei_416_ctrl_60x_009.npz
# Voxel size (nm): (108, 108)
# Area quantity: voxels
# Num nuclei detected: 890
Y           X           AREA       MAJOR_AXIS_LENGTH    MINOR_AXIS_LENGTH
8.11688     722.95455   154.00000  15.15989             12.99965
13.27742    522.92903   155.00000  19.25635             10.60296
13.68790    757.28025   157.00000  15.87618             12.80169
14.24828    798.08966   145.00000  14.73370             12.61238
17.28667    892.39333   150.00000  18.15945             10.54724
21.73859    811.02075   241.00000  18.79587             16.57490
23.72143    1116.04286  140.00000  14.35053             12.70287
37.93471    791.54296   291.00000  22.06239             16.89461
54.11067    420.69565   253.00000  20.02057             16.20510
68.60800    841.73600   250.00000  20.67372             15.66855
69.02727    1035.33636  110.00000  12.22619             11.56672
75.72165    1061.19588  97.00000   12.04681             10.26605
81.09341    1025.97802  182.00000  15.38366             15.12250
87.89266    883.90395   177.00000  17.08851             13.36455
90.24088    1237.98540  137.00000  15.82735             11.15818
92.92523    984.68224   107.00000  12.98346             10.65541
99.75847    1291.34322  236.00000  20.84088             14.46418
98.90909    963.66029   209.00000  17.15735             15.52620
104.03600   875.64400   250.00000  22.87841             14.02519
101.86047   1006.69767  129.00000  15.65214             10.52701
104.91509   1030.44340  106.00000  14.62559             9.28586
110.32707   417.11278   266.00000  23.19381             14.72290
108.07059   887.98824   85.00000   13.34135             8.22031
121.98246   1043.02339  171.00000  17.21944             12.79587
124.06452   901.71613   155.00000  16.72526             11.87870
127.43939   1010.34343  198.00000  16.34495             15.50587
136.29500   1089.62000  200.00000  19.24421             13.34906
137.92963   1312.48519  270.00000  20.95162             16.98362
142.82192   418.03653   219.00000  20.83479             13.45563
136.58140   843.00000   43.00000   9.25109              6.05285
145.01058   921.73016   189.00000  17.34066             14.09030
144.07087   1032.74803  127.00000  15.28363             10.61381
145.87302   1181.86508  252.00000  20.47819             16.07619
145.60000   1111.19459  185.00000  17.28858             13.65971
151.71915   1211.80851  235.00000  19.69615             15.26392
155.90385   973.56731   208.00000  20.73139             12.88367
158.96154   1325.97802  182.00000  17.79673             13.04569
165.24797   418.09350   246.00000  20.59253             15.28678
163.67788   1125.24519  208.00000  18.24106             14.54526
163.97794   1232.56618  136.00000  15.17544             11.47293
166.00000   902.46667   180.00000  16.96279             13.57045
171.74194   1005.10968  155.00000  15.30451             12.94646
175.53723   1032.46277  188.00000  19.53022             12.36909
174.11220   1177.00000  205.00000  16.99302             15.48096
175.87179   1057.46154  195.00000  17.98717             13.85384
188.55000   1043.16429  140.00000  14.12413             12.63249
193.11940   994.28358   201.00000  17.36041             14.84336
196.44275   980.87023   131.00000  15.88398             10.53907
195.91803   1061.06557  61.00000   9.27283              8.39216
204.66234   1251.67532  154.00000  15.71553             12.53792
217.64183   1339.15759  349.00000  21.94509             20.66176
217.13659   1269.28293  205.00000  19.70555             13.28872
224.82323   979.44444   198.00000  18.32352             13.85284
230.00746   1189.20149  134.00000  13.30379             12.84700
235.41176   1539.07647  170.00000  16.43019             13.21301
249.47826   1295.70186  161.00000  16.99883             12.11212
248.41748   1192.00971  103.00000  14.31703             9.17994
253.53165   1202.75316  158.00000  17.33021             11.66146
259.01176   1530.06667  255.00000  19.60779             16.80226
264.83186   1030.31416  226.00000  20.81201             14.05982
265.08134   947.06220   209.00000  18.47841             14.43440
266.24113   1350.51064  141.00000  15.63696             11.50394
274.13333   1295.45000  120.00000  15.25737             10.07744
277.90000   1367.86429  140.00000  14.85095             12.08164
284.25253   928.15657   198.00000  19.53561             13.15248
291.60902   1512.40977  266.00000  22.41457             15.17627
296.73810   1372.04762  168.00000  15.92313             13.66212
302.75691   1308.89503  181.00000  16.39553             14.10100
310.25725   1227.97101  276.00000  22.18945             16.09589
309.94662   1069.80427  281.00000  21.34058             16.95061
321.03977   1268.93182  176.00000  16.30719             13.76667
330.48837   1095.43189  301.00000  22.70632             17.01088
329.86667   1326.31795  195.00000  18.24825             13.64879
334.89904   1308.31731  208.00000  18.39624             14.57199
337.20913   1495.24715  263.00000  23.43893             14.37349
340.40336   1216.48739  238.00000  24.46681             12.78180
365.04959   1495.43802  121.00000  15.19332             10.14136
369.46429   1235.26190  168.00000  15.86831             13.62885
380.55556   1118.25778  225.00000  21.30594             13.51616
382.68148   1497.93333  135.00000  15.01766             11.46354
397.89640   1094.81982  222.00000  18.19048             15.60379
397.86735   1262.81633  196.00000  19.46738             12.92821
409.81533   1288.70035  287.00000  23.94694             15.39822
411.76796   1495.35359  181.00000  18.43459             12.52710
430.73224   1501.01093  183.00000  16.58963             14.13155
430.20492   1655.33607  122.00000  15.19101             10.60468
437.24739   1062.76655  287.00000  25.12706             14.81239
434.76687   1313.85276  163.00000  15.91607             13.18447
439.88623   1325.14970  167.00000  16.74251             12.84581
452.77665   1333.95431  197.00000  18.33978             13.69570
467.36260   1035.86260  262.00000  22.08930             15.34068
484.26820   1020.21839  261.00000  20.66705             16.13405
484.63243   1662.47027  185.00000  17.85077             13.28507
486.01538   1621.53846  195.00000  16.36895             15.14069
486.59783   1597.35870  184.00000  16.21907             14.52852
495.38686   1647.25547  137.00000  15.93874             11.13320
499.31897   1568.35345  232.00000  20.00857             15.12350
503.55689   1603.29940  167.00000  16.48794             12.93663
518.94516   1296.69032  310.00000  24.53976             16.52168
522.70412   1391.91011  267.00000  19.14085             17.86447
523.06557   1658.47951  244.00000  19.63314             15.92932
522.89498   1692.31050  219.00000  21.30211             13.20400
530.75096   1747.78161  261.00000  20.54320             16.38822
534.94750   1461.04500  400.00000  27.63499             20.60560
539.68238   1008.18610  403.00000  30.35396             17.15850
536.74163   1367.62201  209.00000  20.44047             13.31979
536.04225   1441.92958  284.00000  20.63550             17.82182
533.21250   1515.41875  160.00000  17.95113             11.40741
535.94643   1358.16071  56.00000   10.98770             6.54303
538.65939   1646.66376  229.00000  21.44936             13.65762
551.80800   1316.37200  250.00000  24.30860             13.26227
548.87440   1670.16908  207.00000  17.84207             14.87676
546.16667   1719.61111  108.00000  13.78684             10.03437
551.52913   1274.09223  206.00000  17.80930             14.76021
553.54211   1647.06316  190.00000  18.08023             13.48224
554.19512   1562.42439  205.00000  16.86399             15.48053
561.41194   851.25672   335.00000  26.76496             17.15840
561.90667   1368.52444  225.00000  18.80457             15.38482
559.73009   1402.88053  226.00000  21.77154             13.58047
562.33862   1586.63492  189.00000  16.90774             14.25773
568.32990   1280.51031  194.00000  21.18675             11.74547
570.57895   1575.07018  171.00000  17.63916             12.50603
575.05238   1409.48095  210.00000  19.42404             13.83130
567.77778   1566.07407  27.00000   6.41913              5.70820
574.40361   1357.45181  166.00000  16.94830             12.56082
573.07115   1479.23715  253.00000  20.76467             15.75823
576.47260   1546.51370  146.00000  15.19319             12.25533
576.23404   1433.44681  47.00000   9.27909              6.42122
580.43258   1456.83708  178.00000  16.45594             13.84128
584.05970   1518.52239  268.00000  27.36878             12.69932
583.18732   787.19597   347.00000  28.86873             15.48905
583.23853   1563.61468  218.00000  19.19031             14.56798
583.72973   1231.93436  259.00000  20.28291             17.06401
586.10345   926.26207   290.00000  25.37149             15.38775
588.29442   1307.19797  197.00000  17.16284             14.81225
598.12832   1459.12832  226.00000  17.27151             16.64411
599.70149   1286.02239  134.00000  14.66843             11.76387
605.03209   1299.09626  187.00000  17.41794             13.72071
610.39203   991.29568   301.00000  29.49756             13.57261
603.95238   1227.25397  189.00000  20.14592             12.06046
611.20349   1276.12209  172.00000  16.81313             13.13787
616.04348   1332.01932  207.00000  19.70769             13.60788
618.50000   1537.76296  270.00000  21.75224             16.07714
618.11638   1430.63362  232.00000  19.80349             14.94619
620.30469   1262.51562  256.00000  20.47888             16.10904
619.45679   1454.65432  243.00000  17.97927             17.22442
622.56875   1470.05625  160.00000  16.26678             12.58434
624.69588   1383.80928  194.00000  16.70442             14.91051
625.49289   1499.71564  211.00000  17.73389             15.14876
627.63291   1408.35443  237.00000  18.64351             16.50829
626.43046   1297.68874  151.00000  16.79793             11.61139
630.86731   1181.44660  309.00000  25.74701             15.51283
635.80952   752.18452   336.00000  23.50987             18.64374
632.62844   1345.92202  218.00000  18.00944             15.46691
634.88215   1013.33670  297.00000  22.95150             16.68082
641.65000   1760.09063  320.00000  29.39467             14.18491
643.04955   1468.97748  222.00000  18.00054             16.28037
649.97744   993.74812   266.00000  25.03686             14.71677
649.88559   1314.22881  236.00000  20.62284             14.79431
652.56554   1054.78652  267.00000  20.55006             16.59425
656.86331   1678.59712  139.00000  14.30379             12.40280
658.29412   1694.93529  170.00000  18.81794             11.64621
661.57194   1532.65827  278.00000  20.62453             17.19591
668.11404   1163.35673  342.00000  32.69800             14.45744
665.04270   1221.56228  281.00000  22.22803             16.82783
667.49235   1508.27041  392.00000  25.67505             19.71917
670.91209   1064.19048  273.00000  23.42312             15.63086
666.56071   1290.41071  280.00000  20.77469             17.42240
670.49706   1559.78235  340.00000  21.24895             20.92017
680.13043   1140.92490  253.00000  22.27770             14.91284
682.19247   1363.89121  239.00000  18.58350             16.53439
677.99174   1626.95041  121.00000  14.91410             10.65500
681.88732   1609.38967  213.00000  18.05847             15.14781
688.44912   1116.64561  285.00000  29.82665             12.46401
695.70085   1060.90598  234.00000  19.25314             15.50902
703.01887   1320.78616  318.00000  25.24778             16.65638
699.39431   1298.44715  246.00000  19.44695             16.35976
707.20290   1275.77536  276.00000  19.86399             18.00521
708.97046   1194.42616  237.00000  19.41562             15.58304
725.71171   1127.18919  111.00000  15.73344             9.06819
725.77273   1136.01515  132.00000  15.97500             10.80822
728.52189   1306.72054  297.00000  21.07070             18.10205
728.75155   2019.27329  161.00000  15.53742             13.22837
733.55642   1377.21790  257.00000  19.67845             16.74373
731.62874   17.12575    167.00000  17.34313             12.25637
732.99425   1247.42529  174.00000  16.63071             13.35530
737.41573   1283.83521  267.00000  20.01143             17.45616
735.09091   984.48485   33.00000   7.32359              5.67174
745.67442   1035.84496  258.00000  22.94466             14.32583
746.04348   974.44664   253.00000  23.24448             14.13534
748.87500   13.20089    224.00000  19.20195             14.95817
754.78829   1208.86036  222.00000  19.96158             14.29931
756.34909   1119.57091  275.00000  23.58383             15.05234
757.47416   1332.27660  329.00000  26.63094             15.98904
769.98406   919.94024   251.00000  20.23591             16.05198
776.22449   1298.36735  294.00000  25.47113             15.14054
774.00877   1171.30702  228.00000  20.61081             14.18924
776.50628   1021.30962  239.00000  20.86360             14.62431
778.25532   1222.31489  235.00000  17.77063             17.05687
777.25806   1119.20968  62.00000   9.48672              8.36896
784.99317   964.50512   293.00000  21.35056             17.97919
783.22523   1271.77928  222.00000  20.13940             14.11736
787.41631   608.61373   233.00000  18.68982             16.07073
787.53472   2023.99306  144.00000  16.80013             11.66486
791.85130   1093.43123  269.00000  23.59951             14.60158
791.02793   1189.27933  179.00000  18.71792             12.28065
799.19828   1331.41810  232.00000  20.08648             14.93678
801.60684   1066.94444  234.00000  21.23569             14.32444
804.07213   146.56393   305.00000  24.52055             15.93750
796.09091   1199.90909  22.00000   5.50282              4.97265
808.01103   1010.83824  272.00000  25.45738             14.00950
807.92672   1301.00862  232.00000  18.78577             15.91922
808.57028   103.55020   249.00000  19.65411             16.16202
809.94150   640.99443   359.00000  33.37407             14.70866
804.76364   908.72727   55.00000   10.26656             6.83342
809.70642   122.50000   218.00000  19.61953             14.31774
810.27350   1325.30769  117.00000  14.97308             9.96924
813.64080   204.94540   348.00000  24.14447             18.53332
821.56159   36.87681    276.00000  20.84807             17.18812
825.71014   241.25000   276.00000  20.89303             16.94084
823.29078   1157.51773  141.00000  14.58065             12.38982
821.84615   890.75000   52.00000   8.56264              7.77041
825.99448   1188.74586  181.00000  18.01535             12.88384
830.53676   1018.75000  272.00000  24.68656             14.74566
834.71713   965.44622   251.00000  20.04301             16.00582
828.56410   1079.07692  39.00000   7.63673              6.47536
834.52500   1200.74583  240.00000  19.27324             16.03222
838.04511   1278.51504  266.00000  25.29285             13.49222
835.15823   890.69620   158.00000  15.56041             13.58132
833.17857   1149.97143  140.00000  13.88080             13.00769
838.00658   983.08224   304.00000  21.67143             18.36983
837.20755   1263.53774  212.00000  18.02625             15.01203
838.60690   670.37931   290.00000  25.52953             14.54859
840.42199   1321.45035  282.00000  25.95982             14.53367
842.99645   279.14894   282.00000  22.45117             16.25117
840.69880   1134.78313  166.00000  18.07479             11.80419
841.48472   1235.99563  229.00000  17.66545             16.57845
843.83486   899.66972   109.00000  14.54182             9.66625
843.34409   1144.68817  93.00000   11.19121             10.79204
844.08257   1288.78899  109.00000  14.38866             10.07849
841.67273   1343.83636  55.00000   9.47386              7.37774
849.81771   15.13542    192.00000  17.61142             14.03316
853.46383   928.36170   235.00000  19.79343             15.53895
855.98944   1242.05986  284.00000  21.40404             17.18023
859.08101   1036.58380  358.00000  25.40770             18.38317
853.70270   1143.06306  111.00000  12.78097             11.14999
857.78528   915.26380   163.00000  15.37763             14.03970
856.50000   1270.20000  30.00000   6.64113              5.73196
865.20641   850.25979   281.00000  23.87553             15.13069
867.39572   710.09091   187.00000  17.12250             14.00269
868.89904   876.33654   208.00000  18.96909             14.03178
868.68449   1100.37433  187.00000  18.85326             12.63528
868.86735   726.27551   196.00000  16.98138             14.91520
871.40239   71.37450    251.00000  19.57132             16.38242
872.74346   831.07853   191.00000  15.86437             15.35845
874.55859   1297.76172  256.00000  19.64674             16.75872
875.40850   1321.41830  306.00000  23.76977             17.68088
874.02994   50.76647    167.00000  15.92747             13.36691
878.42751   893.51301   269.00000  22.87691             15.76815
877.98837   797.46899   258.00000  20.40599             16.32746
880.62069   302.47893   261.00000  22.44631             15.02334
882.71685   989.93548   279.00000  21.70103             16.59389
884.73991   874.96413   223.00000  18.14931             15.75064
887.93103   1060.71552  232.00000  19.28870             15.61904
886.80296   818.04926   203.00000  17.64709             14.69691
890.80321   948.40964   249.00000  23.28466             13.67429
893.04403   753.19497   159.00000  17.48158             11.73584
892.46914   6.68519     162.00000  15.30076             13.54241
896.27000   1129.00500  200.00000  18.85074             13.55444
896.27273   1233.36898  187.00000  16.14613             14.95442
901.59140   141.39785   186.00000  16.22673             14.66637
902.87931   781.93103   290.00000  19.82179             18.86434
901.99648   1171.54930  284.00000  28.83458             13.26940
902.29412   1217.42781  187.00000  16.78244             14.26655
904.43478   1047.84058  207.00000  16.65386             16.07321
910.03623   982.46014   276.00000  32.59486             12.09953
906.48523   117.64979   237.00000  19.22040             15.72558
908.21212   1306.32468  231.00000  18.99124             15.52124
908.52511   1191.73516  219.00000  19.10254             14.66232
912.24107   889.48214   224.00000  18.77157             15.44507
914.12203   692.54576   295.00000  19.94969             18.93259
914.57542   714.34637   179.00000  19.00151             12.30134
911.86047   734.24806   129.00000  13.24940             12.46244
915.48066   757.28729   181.00000  17.00385             13.71357
916.79775   875.69663   89.00000   15.40716             7.45007
920.60000   173.06333   300.00000  28.90866             13.35109
917.95960   787.17677   198.00000  18.40307             13.85469
924.14337   935.73118   279.00000  22.83404             15.86558
921.47668   1120.87565  193.00000  18.66832             13.16709
915.95833   1225.87500  24.00000   6.51599              5.02634
926.38667   721.88889   225.00000  21.51697             13.53691
928.87193   834.66757   367.00000  23.30187             20.56201
929.95631   1285.78641  206.00000  17.48620             15.11755
929.13014   816.86301   146.00000  14.54961             12.79600
933.01689   863.44595   296.00000  21.27496             18.00077
932.40299   16.47761    201.00000  18.31641             14.14608
934.74320   333.16918   331.00000  22.79929             18.69737
941.59532   1172.83612  299.00000  35.75125             11.90271
935.35374   689.61224   294.00000  20.45308             18.42540
935.65812   1247.44444  234.00000  18.13357             16.48691
943.33588   984.64504   262.00000  25.68605             13.17561
941.36306   1262.64331  157.00000  15.06995             13.33882
947.00513   1205.94872  195.00000  17.11181             14.58854
947.88462   239.75214   234.00000  19.84630             15.03291
948.97925   84.96680    241.00000  22.94056             13.43730
