# Filename: Nuclei_416_bidi_60x_016.npz
# Voxel size (nm): (108, 108)
# Area quantity: voxels
# Num nuclei detected: 755
Y           X           AREA       MAJOR_AXIS_LENGTH    MINOR_AXIS_LENGTH
13.78195    647.69173   133.00000  14.63852             11.61685
17.41053    502.08421   95.00000   12.80439             9.59691
28.85465    724.29070   172.00000  21.18533             10.74022
30.30890    517.30366   191.00000  16.42125             14.86026
31.19565    786.47826   138.00000  16.51194             10.67354
37.06367    206.50936   267.00000  20.45408             16.72712
38.61765    757.66667   102.00000  13.00644             10.31512
43.23077    570.41346   208.00000  19.39484             13.66998
52.56805    811.26627   169.00000  20.68344             10.51480
50.74825    517.59441   143.00000  15.05969             12.13647
58.53744    740.66520   227.00000  23.49738             12.41766
63.01304    640.74783   230.00000  20.08333             14.65266
68.76154    883.53846   130.00000  14.73798             11.29792
68.17000    1342.99000  100.00000  13.47645             9.51637
73.94776    992.67164   134.00000  14.94493             11.48976
73.78761    271.65487   113.00000  14.36596             10.24223
75.21547    377.59116   181.00000  16.42284             14.16946
76.33455    935.34182   275.00000  22.86073             15.38582
84.95732    641.71951   164.00000  15.28801             13.82164
96.48544    843.93204   309.00000  23.96788             16.51362
113.67961   1132.15534  309.00000  24.58626             16.10922
113.49259   827.86296   270.00000  22.06539             15.76361
130.32192   379.96575   146.00000  14.15622             13.14226
133.47208   323.42640   197.00000  19.87275             12.65794
135.27363   817.48259   201.00000  18.07717             14.23307
133.85455   580.91818   110.00000  12.69890             11.15354
137.98701   948.01732   231.00000  20.22143             14.65165
145.48606   1145.96016  251.00000  25.65897             13.34536
145.89796   272.88776   196.00000  17.98170             13.97536
148.50641   1067.17949  156.00000  16.34539             12.50659
156.79936   922.61146   314.00000  25.39227             15.92243
153.65714   329.45714   70.00000   9.90569              9.29339
168.28333   276.43333   120.00000  15.16952             10.11913
173.28070   1131.60088  228.00000  21.60837             13.66025
171.11207   1073.16379  116.00000  13.30341             11.14371
176.61826   606.60581   241.00000  21.28483             14.48984
176.54054   1251.06757  148.00000  16.45975             11.52220
186.36735   802.93878   196.00000  22.10287             11.29291
197.30047   46.64789    426.00000  31.76177             17.34180
191.33333   855.45098   153.00000  14.59797             13.37291
200.05181   601.19171   193.00000  17.19343             14.44674
206.04054   1043.63514  296.00000  25.67518             14.84447
204.14085   1512.57042  284.00000  24.38676             14.95869
205.73401   994.96296   297.00000  22.77604             16.79718
215.58868   1243.56604  265.00000  21.65294             15.72199
216.96983   1093.42672  232.00000  19.81853             14.99958
220.72685   1153.90278  216.00000  20.98532             13.21802
228.28340   792.16194   247.00000  26.80586             12.12887
229.31227   92.28253    269.00000  21.60979             15.89771
230.01005   527.35678   199.00000  19.45851             13.20391
228.81560   174.68794   141.00000  15.24087             11.82603
235.26636   1479.14953  214.00000  20.99871             13.00865
234.78182   1082.97273  220.00000  17.58638             16.07426
239.84158   222.71782   202.00000  22.32012             13.24327
240.13025   903.58403   238.00000  22.29661             13.65566
243.63900   919.04149   241.00000  20.43535             15.15404
245.53030   19.35606    132.00000  15.36565             11.50121
251.83673   1257.87075  147.00000  16.76718             11.21548
257.94068   1817.14407  118.00000  17.29830             8.76283
264.04776   1075.06269  335.00000  24.06904             18.24992
264.55077   1150.05231  325.00000  26.89466             15.43308
262.66045   1455.83955  268.00000  23.96613             14.52412
260.42222   493.89630   135.00000  14.24256             12.10292
262.06211   923.72671   161.00000  15.54960             13.21900
264.98707   1047.96983  232.00000  21.48176             14.21144
262.21348   1244.40449  89.00000   12.65840             9.04495
272.13253   978.58434   166.00000  19.90040             10.81112
277.36877   1004.59136  301.00000  22.71423             17.00303
276.90535   150.90535   243.00000  21.16249             14.75821
279.09677   237.37097   248.00000  19.99117             16.07447
283.40092   802.29493   217.00000  28.53883             9.77939
279.56716   344.74627   67.00000   10.51493             8.17931
285.09873   904.34713   314.00000  22.24123             18.05463
283.16279   324.23256   172.00000  19.37444             11.35034
288.38226   868.90826   327.00000  23.48814             17.90118
285.38164   1248.88406  207.00000  17.13408             15.45927
288.23770   979.92213   244.00000  20.54772             15.34531
292.21898   466.32847   137.00000  15.14913             11.84123
292.60000   443.88000   200.00000  17.61782             14.58020
293.32743   1378.21239  113.00000  14.42357             10.49912
296.39773   397.30114   176.00000  15.48293             14.59223
302.84103   964.93333   195.00000  20.91693             12.18644
300.90960   155.25989   177.00000  16.92750             13.33360
302.31834   234.02422   289.00000  21.73118             17.11615
305.90380   942.17002   447.00000  28.90148             20.36787
311.17021   1022.43465  329.00000  24.55204             17.24937
311.52155   854.46983   232.00000  21.32688             14.08976
310.80496   1165.07447  282.00000  21.47395             16.82330
313.68165   766.85768   267.00000  21.10175             16.21551
323.75000   90.47984    248.00000  20.86684             15.49466
328.21569   1659.66667  255.00000  19.27777             16.92412
331.45082   772.21721   244.00000  18.89480             16.55877
334.99583   26.73750    240.00000  19.87470             15.42812
343.72013   991.01572   318.00000  23.52286             18.20592
348.60630   64.46457    254.00000  19.58480             16.67612
353.13433   763.70522   268.00000  22.51201             15.25531
358.67868   1323.61862  333.00000  27.01161             15.87613
366.78618   789.88487   304.00000  22.32895             17.54246
368.56329   1679.08228  158.00000  15.84403             12.72034
374.96281   1136.52479  242.00000  22.11405             14.15481
372.71519   849.88291   316.00000  27.76766             14.83228
372.30508   569.86441   59.00000   9.59899              7.89173
383.30743   967.46622   296.00000  27.73492             14.05782
379.36000   1116.10000  300.00000  27.63446             14.38041
382.52290   1287.01908  262.00000  24.23653             14.06949
385.26351   682.57770   296.00000  28.27059             13.66781
386.52212   866.29499   339.00000  25.76707             16.83348
384.95131   791.37453   267.00000  22.98379             14.90578
385.64931   1163.46528  288.00000  24.26920             15.39361
386.83237   706.60694   173.00000  15.65302             14.07548
389.73810   978.94444   126.00000  17.02171             9.54373
391.15748   726.92126   254.00000  21.88246             15.92602
396.05282   1227.16901  284.00000  21.98475             16.56911
394.41494   1110.27801  241.00000  19.56608             16.03415
397.08869   905.71254   327.00000  24.49616             17.08786
400.96565   583.88550   262.00000  21.53282             15.72432
398.26556   669.70954   241.00000  20.41968             15.05544
400.44518   1174.06645  301.00000  22.10583             17.43401
401.96218   640.26050   238.00000  19.96160             15.23670
400.38150   885.78613   173.00000  17.73388             12.45562
410.18092   960.45066   304.00000  26.29544             15.22939
412.01500   557.55500   200.00000  19.95098             12.78383
414.27907   1025.89767  215.00000  20.17307             13.66871
416.53763   763.32796   186.00000  17.11133             13.83609
422.40766   931.31532   444.00000  24.99603             22.98987
422.58423   875.79570   279.00000  21.34807             16.83852
424.34050   747.11470   279.00000  24.83351             14.36287
424.19459   1688.96216  185.00000  16.96028             14.04168
422.31868   578.21978   91.00000   12.33942             9.40775
427.48000   967.26182   275.00000  19.09886             18.48733
424.88136   836.45763   59.00000   11.77457             6.61947
429.11600   985.08000   250.00000  20.69842             15.47520
429.84762   1019.54286  210.00000  19.58313             13.72329
431.65919   1081.20628  223.00000  24.29413             11.92091
433.94751   806.46409   362.00000  24.80319             18.65201
430.51337   844.04813   187.00000  16.31032             14.95547
431.54545   1148.65000  220.00000  17.70804             15.87896
433.06884   1063.53986  276.00000  20.77668             17.13703
434.04710   1129.65942  276.00000  23.18179             15.25874
432.15152   590.03030   99.00000   11.48906             10.98683
440.18284   783.75746   268.00000  23.75872             14.53825
437.47368   1006.57895  38.00000   8.02783              6.00622
437.06897   1030.24138  29.00000   6.75067              5.48724
445.10968   1563.28710  310.00000  21.08093             18.85409
445.78613   1158.57803  173.00000  17.16006             13.07816
445.52514   847.56983   179.00000  17.55826             13.09866
445.41958   1170.12587  143.00000  15.86927             11.58632
448.25795   1189.99293  283.00000  21.06004             17.62957
448.43404   1087.90638  235.00000  19.95302             15.17497
451.93916   1039.01141  263.00000  21.10287             15.90822
455.26296   830.80370   270.00000  19.89331             17.65303
455.62288   1719.80508  236.00000  19.23845             16.09133
452.89394   1786.66667  132.00000  16.29543             11.07076
458.41500   1668.55000  200.00000  20.54463             12.42589
458.24498   1738.04016  249.00000  21.69993             14.76668
459.71500   775.48000   200.00000  17.06019             15.01612
463.66899   889.77700   287.00000  21.37149             17.34503
463.37864   966.84951   206.00000  17.59500             14.97417
462.84906   924.26415   159.00000  16.57592             12.28117
462.45082   1587.22131  122.00000  14.46152             10.79508
469.23404   1069.65957  141.00000  17.22036             10.45718
474.76296   1140.59630  270.00000  24.52490             14.17773
476.18966   720.78448   232.00000  18.43414             16.16622
477.34783   974.36957   138.00000  15.10262             11.64791
483.12139   1161.97399  346.00000  25.30545             17.57002
482.70565   1076.57258  248.00000  23.35675             13.74038
483.13783   990.31085   341.00000  23.36052             18.67524
483.22872   1801.80319  188.00000  18.22258             13.16718
486.95367   937.92664   259.00000  22.44218             14.82602
483.39623   917.59906   212.00000  19.05113             14.24478
485.13772   1123.76647  167.00000  17.15088             12.53310
490.18932   797.20874   206.00000  19.72687             13.61707
489.87435   1063.55497  191.00000  16.31270             15.19311
490.75115   1097.14286  217.00000  19.07816             14.54872
497.14552   1032.17910  268.00000  19.91987             17.16001
497.18557   1632.19588  97.00000   14.04752             8.80119
500.36420   1836.23457  162.00000  18.55626             11.34078
500.08621   1164.64655  116.00000  12.62499             11.85002
503.96087   1579.24348  230.00000  18.64183             15.80192
503.54245   1061.88679  212.00000  20.33675             13.41899
505.12617   995.02336   214.00000  18.97894             14.39315
509.85714   750.62449   245.00000  21.55685             14.71529
509.42268   774.05155   194.00000  18.34000             13.73839
515.40336   1163.21849  119.00000  12.84796             11.80940
517.06452   1849.69892  93.00000   13.20091             9.38791
522.83871   778.07742   155.00000  17.53175             11.32496
524.83178   1544.17290  214.00000  18.63949             14.67317
530.59391   1164.02030  197.00000  19.09163             13.18250
526.91837   759.75510   49.00000   8.18353              7.61606
535.74429   1004.01826  219.00000  20.05918             14.17479
536.53738   1021.19626  214.00000  17.91015             15.22569
537.69534   1084.70251  279.00000  22.68468             15.76197
536.68889   1175.06667  45.00000   8.26435              6.91155
542.21711   772.45395   152.00000  17.18688             11.47684
543.50980   1831.39706  204.00000  19.34079             13.55446
549.38596   1123.00000  171.00000  17.43572             12.56554
550.63636   1762.71123  187.00000  19.18314             12.63816
556.71569   824.40850   306.00000  25.69872             15.42698
556.20992   722.94275   262.00000  19.99901             16.76463
553.81553   778.33010   103.00000  12.00800             11.07808
571.22624   1722.34842  221.00000  18.47248             15.27683
576.97605   1143.70659  167.00000  17.22996             12.35766
585.54286   794.76667   210.00000  25.71798             10.66409
589.42089   1167.23418  316.00000  25.97119             15.85419
592.72414   738.06404   203.00000  18.14157             14.52581
595.56710   754.06926   231.00000  22.38273             13.86791
591.49020   1681.33824  204.00000  16.73055             15.57719
590.95425   724.35948   153.00000  16.74004             11.88273
596.21854   626.27815   151.00000  18.69923             10.41739
599.34259   1152.56944  216.00000  17.33340             16.21516
601.00621   1832.93789  161.00000  16.26937             12.77772
610.51198   867.21557   334.00000  28.39477             15.29462
613.98828   1178.20703  256.00000  19.80024             16.78951
615.04306   1676.44019  209.00000  19.11230             13.96824
616.94521   623.27397   219.00000  19.68163             14.20740
616.82734   856.43885   139.00000  18.50212             9.90375
627.53505   836.26402   428.00000  29.64030             18.79203
620.71186   1863.66102  118.00000  16.26209             9.33218
624.07910   605.20904   177.00000  16.52096             13.77375
630.00000   309.73661   224.00000  21.17367             13.48258
635.79330   774.63687   179.00000  17.93813             12.70156
640.14943   788.05747   174.00000  16.94057             13.24083
641.53219   1654.87124  233.00000  20.27897             14.72498
641.82105   1853.01053  95.00000   12.76715             9.52898
648.03125   326.31641   256.00000  22.83224             14.32249
650.42213   1928.65164  244.00000  18.29177             16.99070
664.92580   775.76678   283.00000  31.93190             11.55857
665.25514   347.03704   243.00000  26.23923             12.00355
666.99703   876.76558   337.00000  23.45573             18.77367
676.35593   922.73898   295.00000  20.05687             19.15012
677.25806   566.62903   248.00000  19.48330             16.36986
690.22611   798.70382   314.00000  27.76001             14.58910
689.03241   393.78241   216.00000  24.64460             11.16953
698.48571   1057.80357  280.00000  27.88508             13.12910
694.51818   577.28182   110.00000  12.69747             11.38612
698.85417   1926.35417  48.00000   9.40446              6.57335
698.90909   911.09091   33.00000   8.26823              5.04307
708.01149   1747.70115  261.00000  26.16563             12.84977
713.14760   398.15129   271.00000  25.83039             13.40164
711.43030   488.69697   165.00000  17.62861             11.94129
715.95984   888.47791   249.00000  21.62309             14.86183
714.92784   541.03093   194.00000  16.32648             15.15511
718.06597   958.22917   288.00000  21.88118             16.79364
714.85561   1930.05882  187.00000  16.99653             14.07436
718.17241   796.04598   87.00000   14.47042             7.76264
715.08163   938.02041   49.00000   9.33506              6.70733
716.67647   1478.23529  102.00000  14.48374             9.07776
718.70690   829.84483   58.00000   10.60115             6.93272
729.84416   477.62662   308.00000  24.07298             16.91390
724.05882   788.28676   136.00000  16.58138             10.43938
734.77778   821.55144   243.00000  28.03984             11.30554
730.44086   1481.01075  186.00000  18.81844             12.72716
732.75258   584.50000   194.00000  17.34914             14.32203
731.12222   738.68889   90.00000   13.19848             8.83499
734.29221   1935.35065  154.00000  15.94081             12.52162
738.42593   643.81111   270.00000  27.72174             13.36228
740.48515   1006.75743  202.00000  18.91215             13.70695
750.00297   838.18398   337.00000  33.21334             13.11170
745.55497   440.29319   191.00000  19.05213             12.87763
744.71315   517.79283   251.00000  20.89418             15.39893
744.96500   756.16500   200.00000  22.12280             11.62268
746.18493   980.20548   292.00000  23.65948             15.84145
742.82308   551.93077   130.00000  15.98459             10.43847
750.38387   686.04839   310.00000  24.84795             16.45650
752.83333   730.65705   312.00000  22.95035             18.08332
750.00446   1733.40179  224.00000  20.16224             14.22676
751.08148   1698.15926  270.00000  23.68974             14.66272
754.19600   642.35200   250.00000  18.35782             17.78565
755.98529   920.81863   204.00000  21.13032             12.35581
759.17706   496.14464   401.00000  39.12216             16.30727
759.58468   430.59677   248.00000  20.30853             15.64348
767.74242   1710.73864  264.00000  19.43767             17.48657
768.34524   517.78571   168.00000  19.49109             11.26852
766.51376   648.65138   109.00000  14.23371             9.81128
767.11111   676.39444   180.00000  17.09255             13.68868
769.80930   832.11628   215.00000  20.04629             13.79549
780.70438   335.43796   274.00000  28.82010             12.73768
776.59624   1456.43192  213.00000  19.07470             14.25684
780.62332   448.29148   223.00000  23.65282             12.09528
781.50622   924.27801   241.00000  22.70688             13.72729
777.83544   968.91772   158.00000  15.42516             13.19777
777.58940   1265.07947  151.00000  15.65584             12.31124
779.59783   380.86232   276.00000  23.63657             15.10498
782.66327   1011.02551  196.00000  16.72024             15.09145
783.32803   1039.25478  314.00000  22.63851             17.66638
784.00000   955.70701   157.00000  16.44680             12.19906
789.84918   865.01967   305.00000  28.06483             14.04938
791.29545   1269.55114  176.00000  16.22770             13.86774
798.82403   330.10730   233.00000  20.44135             14.65408
803.45918   747.85034   294.00000  24.80357             15.80462
801.56477   10.94819    193.00000  18.08240             13.63570
803.19048   1065.92857  42.00000   7.48129              7.10041
807.10588   1251.35294  85.00000   12.96208             8.53369
811.07692   474.13846   195.00000  18.03189             14.09231
815.40339   935.30847   295.00000  20.65873             18.51594
813.54067   1773.88995  209.00000  21.23298             12.58626
817.46396   852.27477   222.00000  24.70506             11.63710
821.17801   1207.71990  382.00000  29.64032             18.01404
821.06593   465.52198   182.00000  15.81940             14.91363
817.11765   1040.04412  68.00000   9.54284              9.06054
821.43379   1092.59361  219.00000  18.78081             15.13358
823.26871   338.43197   294.00000  21.41090             17.91943
822.09132   717.33790   219.00000  20.85674             13.61991
822.61842   918.13816   152.00000  18.66479             10.39438
822.68775   1749.21344  253.00000  19.96749             16.17367
