# Filename: Nuclei_416_bidi_60x_007.npz
# Voxel size (nm): (108, 108)
# Area quantity: voxels
# Num nuclei detected: 622
Y           X           AREA       MAJOR_AXIS_LENGTH    MINOR_AXIS_LENGTH
474.31548   12.32738    168.00000  17.28191             12.66153
491.23158   34.58947    190.00000  17.59067             13.93303
504.63975   50.96894    161.00000  16.39280             12.53830
525.26667   79.24444    270.00000  19.24793             17.93944
558.67488   873.78325   203.00000  21.93256             11.85079
571.35955   825.77528   178.00000  18.69686             12.60998
572.43979   1046.80105  191.00000  17.29694             14.49458
575.71429   156.77551   98.00000   12.98963             9.66024
581.37853   879.46328   177.00000  18.88128             12.04076
584.07576   684.25000   132.00000  16.44114             10.44423
586.30508   1028.61864  236.00000  21.47862             14.13993
589.66111   673.82778   180.00000  17.90864             13.21244
591.29150   816.00810   247.00000  22.36448             14.15157
589.66082   1069.56725  171.00000  15.90501             13.90593
592.70391   200.27374   179.00000  15.93009             14.35034
596.65778   948.16444   225.00000  24.01619             13.44124
592.13242   961.24201   219.00000  26.03876             11.38123
596.96364   1001.01818  165.00000  16.35518             12.87033
598.66187   983.74820   139.00000  14.90635             11.99011
602.39286   1050.00000  168.00000  17.77828             12.06872
604.64151   921.58491   159.00000  16.13512             12.70476
604.45185   856.60000   135.00000  14.03353             12.24034
609.85263   884.12105   190.00000  18.87633             12.91540
609.87500   801.45312   192.00000  22.12195             11.43098
609.55975   212.92453   159.00000  20.86091             10.24824
612.13146   766.10329   213.00000  22.51628             12.14881
612.05806   750.07097   155.00000  16.51071             12.00365
613.37226   738.37226   137.00000  14.19785             12.36906
615.72031   647.13027   261.00000  22.46103             15.20341
617.21831   793.11268   142.00000  15.82815             11.54525
617.53797   1051.61392  158.00000  15.80010             12.89292
620.40116   842.22674   172.00000  16.41366             13.35504
621.34842   863.01357   221.00000  23.73805             13.02099
631.77444   878.76692   133.00000  18.97866             8.97067
629.97368   1021.46053  152.00000  16.84287             11.61975
632.95745   890.13298   188.00000  21.31952             11.23331
635.91453   1010.15385  117.00000  12.82181             11.67193
643.10823   930.37662   231.00000  18.00780             17.62077
647.00505   1068.77104  594.00000  40.21465             19.38213
642.11258   968.19868   151.00000  15.83466             12.39012
641.93233   1043.18797  133.00000  13.54995             12.54649
642.90517   1019.36207  116.00000  13.12841             11.28426
651.20192   984.49038   208.00000  21.84447             12.49046
653.80292   1022.94891  137.00000  18.39208             9.53148
656.72263   774.09489   274.00000  22.51385             16.02598
657.20280   999.51748   143.00000  15.33526             12.03719
657.83942   718.54015   137.00000  16.33762             10.82312
661.49561   905.92544   228.00000  19.38154             15.27709
665.07563   616.24370   119.00000  13.86009             11.03389
666.37349   725.30120   166.00000  15.92454             13.46401
675.50556   783.45556   180.00000  20.00103             11.62822
675.54601   863.63804   163.00000  17.51197             11.96255
677.46696   615.27313   227.00000  21.24056             13.76125
675.43802   929.42975   121.00000  15.29188             10.50784
688.05882   767.51103   272.00000  30.01190             11.98255
681.02326   717.32558   86.00000   11.92233             9.21903
688.04096   966.26962   293.00000  27.22231             13.82613
686.43617   844.69681   188.00000  16.96286             14.18726
685.11538   925.18750   208.00000  20.03905             13.53796
688.92000   1066.16889  225.00000  25.69544             11.49856
691.65854   828.46341   164.00000  16.47889             12.77281
698.96820   640.90459   283.00000  21.76840             16.63693
698.40223   694.25698   179.00000  16.19625             14.27748
705.20721   889.88589   333.00000  29.89364             14.53288
700.96377   1086.21014  138.00000  13.64756             12.87293
702.12953   1006.65285  193.00000  20.89035             11.86923
708.16484   779.06593   182.00000  17.30466             13.43771
709.34896   1079.15625  192.00000  24.64435             10.07804
718.82333   843.65667   300.00000  29.30484             13.40104
714.46961   994.13260   181.00000  20.07342             11.58248
714.90306   1098.54592  196.00000  16.31030             15.28219
717.44981   720.43494   269.00000  24.14123             14.31743
724.12315   1028.54680  203.00000  18.26336             14.30507
725.84496   667.14729   258.00000  19.80089             16.70537
725.59124   877.24088   137.00000  15.88478             11.13483
728.21084   827.83735   166.00000  18.26471             11.74480
732.01923   951.04327   208.00000  18.66336             14.27306
732.88421   1101.62632  190.00000  16.26706             15.60996
733.27586   1012.15517  116.00000  14.95443             9.90316
734.18367   534.99320   147.00000  15.51382             12.54456
742.59231   559.60000   260.00000  21.87642             15.22407
741.48571   643.42857   175.00000  17.21550             14.12106
740.74569   914.72845   232.00000  18.36167             16.12280
743.75132   976.87302   189.00000  21.88435             11.07537
737.68182   1031.90909  88.00000   12.32992             9.20687
742.17925   869.61321   212.00000  19.52832             13.92843
740.76250   659.56250   160.00000  16.57600             12.38835
746.04274   848.68376   117.00000  16.26924             9.18232
747.31088   1147.21244  193.00000  16.92350             15.14525
745.44737   1024.85088  114.00000  14.49783             10.01800
749.37113   521.66495   194.00000  18.06237             13.78698
755.13309   706.04317   278.00000  19.95733             17.83890
756.79570   1138.01613  186.00000  19.06177             12.47529
759.51497   500.40719   167.00000  16.46659             13.20465
760.32051   804.73718   156.00000  17.73740             11.36210
758.20879   951.93407   91.00000   11.65143             9.99803
759.29771   993.04580   131.00000  14.22333             11.77270
760.24725   1165.39011  182.00000  18.25426             12.71435
762.80088   646.16814   226.00000  21.38503             13.46254
764.72481   1012.95349  258.00000  23.99266             14.03557
761.70769   762.30000   260.00000  29.45789             11.42511
761.31579   1055.04386  114.00000  15.01277             9.67947
766.86207   1123.03448  232.00000  18.45497             16.31334
766.59259   888.25185   135.00000  16.16622             10.64952
766.40132   873.25658   152.00000  16.94830             11.59259
770.96825   956.10053   189.00000  22.20016             12.04979
768.45726   596.17949   234.00000  21.08781             14.41476
770.00000   791.61979   192.00000  17.98906             13.66861
772.02867   1048.14695  279.00000  24.08329             15.19652
767.77451   748.35294   102.00000  13.65597             9.65493
769.65922   817.56983   179.00000  15.82571             14.82304
769.32168   925.00699   143.00000  14.07575             13.04725
775.87368   577.22105   190.00000  17.73149             13.81416
778.12500   933.16176   136.00000  19.60713             9.05916
778.18710   635.29677   155.00000  17.62157             11.31263
780.85799   710.47337   169.00000  20.33144             10.74955
781.38554   740.21687   166.00000  20.21448             10.78166
778.17647   1033.39869  153.00000  16.67363             11.91010
781.23718   942.22436   156.00000  18.40894             11.58781
775.80392   991.96732   153.00000  23.30899             8.69865
783.20792   984.41089   202.00000  22.28441             12.26328
787.95853   755.69124   217.00000  24.11413             11.73113
786.22222   769.21717   198.00000  21.87871             11.61067
786.99593   1152.97154  246.00000  25.02786             12.71320
788.40426   1077.37766  188.00000  20.29247             12.06718
787.09317   690.86957   161.00000  17.20391             12.03564
785.70048   892.07246   207.00000  25.67193             10.83530
786.65462   819.83133   249.00000  23.85042             13.72735
787.89308   1065.58491  159.00000  15.28177             13.50726
789.36416   1015.56647  173.00000  17.77128             12.44180
788.85841   584.47788   113.00000  12.96843             11.13812
793.36803   1031.23792  269.00000  24.47545             14.57165
792.08917   918.45223   157.00000  16.61705             12.19859
792.52727   1109.93636  110.00000  15.48241             9.31079
797.36310   719.44048   168.00000  15.70375             13.99618
799.78319   861.64159   226.00000  22.73704             13.45751
800.72772   1045.50000  202.00000  18.12994             14.26414
804.04762   697.23810   126.00000  19.59304             8.48872
803.23415   895.60976   205.00000  20.36732             12.89526
804.61775   1119.45051  293.00000  20.89580             18.23001
805.90659   705.33516   182.00000  23.68290             10.31360
807.50376   658.69925   266.00000  19.60875             17.61420
807.58333   613.53241   216.00000  23.06144             12.28841
809.97990   1062.15578  199.00000  19.73555             13.57439
809.35000   1007.97500  120.00000  13.89816             11.21626
811.13699   973.91781   146.00000  16.69530             11.42376
815.59336   578.34440   241.00000  21.02433             14.80294
818.36885   827.38934   244.00000  19.92815             16.19667
818.33557   478.11409   149.00000  15.40092             12.39817
820.17742   799.50806   124.00000  13.21394             11.99933
826.97537   987.10837   203.00000  25.45430             10.28459
823.65537   1104.62712  177.00000  18.76729             12.26094
826.28159   1200.54874  277.00000  25.13502             14.54210
822.25641   972.94017   117.00000  14.03135             11.06446
828.70946   897.91892   296.00000  26.16904             14.58975
824.55556   1118.80303  198.00000  19.19832             13.23932
826.34740   1143.13961  308.00000  26.04555             15.31690
832.77444   867.16792   399.00000  24.15796             22.15258
835.66798   481.71937   253.00000  29.26398             11.27359
831.76271   749.81356   177.00000  21.32678             10.60991
828.61345   791.30252   119.00000  12.55098             12.07105
830.44167   1023.80833  120.00000  13.12947             11.97392
832.94690   635.07080   226.00000  19.16378             15.10510
831.75439   1012.31579  114.00000  12.71613             11.47166
838.21555   1172.08481  283.00000  32.75912             11.33942
834.10345   948.17931   145.00000  17.45038             10.68733
837.16425   1084.68599  207.00000  20.59854             13.03321
835.69375   971.14375   160.00000  14.52013             14.11859
836.57143   584.08929   112.00000  15.14302             9.48201
840.51232   595.55665   203.00000  19.25390             13.52655
837.26316   698.33684   95.00000   11.56864             10.58305
842.49519   821.32212   208.00000  22.69048             11.85899
843.09722   935.96296   216.00000  23.74663             11.69989
839.01471   1225.01471  136.00000  15.06838             11.54003
839.04348   1028.83478  115.00000  14.05053             10.50850
842.18919   655.68919   148.00000  16.21685             11.71640
842.13043   780.88820   161.00000  16.69728             12.34225
842.61538   621.64615   130.00000  16.59085             10.00943
846.23301   555.77184   206.00000  20.77997             12.68460
849.20976   1143.07805  205.00000  17.91635             15.25069
846.26316   580.09211   76.00000   11.25994             8.61892
848.16438   698.75342   146.00000  17.24035             11.13286
853.07258   755.86290   248.00000  24.17242             13.36652
851.96045   981.83616   177.00000  17.41714             13.07462
852.12563   1108.38693  199.00000  21.99129             11.65701
857.59064   688.00000   171.00000  17.57718             12.93209
858.51908   852.67557   262.00000  19.99127             17.01108
859.22566   1098.55752  226.00000  25.50543             11.81734
854.31034   1002.43103  58.00000   10.99486             6.81626
864.93994   798.33033   333.00000  27.62626             15.50921
866.78549   474.28076   317.00000  27.80683             14.60481
862.52968   1153.74429  219.00000  17.73509             16.26956
859.42308   595.54396   182.00000  21.04687             11.16029
864.59292   578.44248   113.00000  15.86543             9.41049
863.48485   1044.06061  132.00000  15.76727             10.79551
867.26923   948.70769   130.00000  15.41791             10.80774
866.05263   924.76692   133.00000  14.32745             12.07521
868.62827   1009.76963  191.00000  21.15693             11.78893
874.94675   823.14793   338.00000  22.19378             21.39096
870.21925   963.89305   187.00000  19.89691             12.44777
873.15880   1181.26609  233.00000  19.76441             15.14463
877.01220   711.22358   246.00000  22.50869             15.42053
873.20755   909.68553   159.00000  16.39293             12.50485
878.51779   1220.69960  253.00000  25.39642             12.93492
877.12587   978.58741   143.00000  17.23293             10.87082
878.50000   575.27528   178.00000  16.06515             14.17315
880.42912   856.01149   261.00000  22.73392             14.76061
879.09524   1106.71429  147.00000  15.44608             12.38256
879.74138   926.05172   116.00000  12.41768             11.91921
885.76349   1079.37759  241.00000  24.04939             12.83255
887.49020   1066.85784  204.00000  24.27975             11.08842
887.61324   1119.30314  287.00000  21.94217             16.72325
890.54971   653.29240   342.00000  22.82528             19.52079
888.42553   987.93617   141.00000  14.51830             12.44739
889.95631   911.37864   206.00000  17.82955             15.31596
894.04098   533.98361   244.00000  24.52148             12.80280
890.27211   773.08163   147.00000  14.85480             12.67823
891.52047   1034.18129  171.00000  17.60766             12.96551
888.26316   924.44737   38.00000   8.01343              6.02634
893.25342   959.28767   146.00000  14.73392             12.86648
893.77124   1139.41830  153.00000  18.88765             10.90357
902.60606   1149.43771  297.00000  26.72805             14.48587
899.26404   889.01124   178.00000  17.98499             12.74847
900.45732   522.05488   164.00000  17.62104             11.98605
908.38710   850.55425   341.00000  31.10280             14.52074
900.85795   787.90909   176.00000  16.03636             14.16520
905.75664   670.76549   226.00000  28.07933             10.68734
904.43503   879.02260   177.00000  18.36239             12.72530
905.88235   1207.83613  238.00000  21.64418             14.84218
901.96296   1060.57778  135.00000  16.24042             10.64636
905.86667   982.80000   135.00000  18.45565             9.39847
904.80769   1006.79487  156.00000  15.29731             13.14257
906.29677   716.89677   155.00000  15.58758             12.77457
909.33014   1096.44498  209.00000  19.23881             13.88673
906.92437   777.56303   119.00000  13.50880             11.33950
907.66901   1028.27465  142.00000  16.74701             10.96283
915.99349   698.61238   307.00000  27.23124             14.65797
912.87500   990.43421   152.00000  18.80021             10.42372
916.07692   753.67559   299.00000  26.52788             14.53831
909.68041   941.01031   97.00000   12.44898             9.96931
917.30798   1192.50570  263.00000  22.99783             14.84008
912.61972   484.46479   142.00000  14.73496             12.36012
912.07519   767.16541   133.00000  13.97516             12.18473
915.17365   952.95210   167.00000  17.12028             12.69564
917.30385   628.05385   260.00000  19.02184             17.70615
918.92444   662.61778   225.00000  20.90451             13.72116
917.57249   816.74349   269.00000  23.12347             15.58110
916.23148   1045.25000  108.00000  13.30885             10.38422
920.85816   1075.61348  282.00000  23.30123             16.31558
918.96522   712.58261   115.00000  15.17632             9.75809
919.88430   942.52066   121.00000  15.00598             10.71130
921.97368   1001.84211  152.00000  17.02769             11.55150
924.47479   517.91597   238.00000  20.67651             14.95840
922.92701   737.97080   137.00000  17.75636             9.98391
920.95620   1225.94161  137.00000  13.51672             12.93617
921.36744   915.25581   215.00000  26.71827             10.58063
923.32867   1160.80420  143.00000  16.01343             11.48171
927.40833   726.80000   240.00000  21.77681             14.18201
924.54601   859.21472   163.00000  18.69874             11.39110
926.33813   474.95683   139.00000  16.24613             11.20072
926.56477   601.47150   193.00000  18.10108             13.60057
923.50000   1040.39286  56.00000   9.02943              8.03563
930.76829   553.24390   246.00000  19.99491             16.06144
933.05618   796.59551   267.00000  26.81616             12.85210
929.82514   1132.61749  183.00000  19.61633             12.24333
927.64583   1209.50000  192.00000  19.66055             12.46819
932.59402   645.90171   234.00000  20.51667             14.84971
931.32836   812.42537   134.00000  18.52290             9.31609
931.49091   882.54545   110.00000  17.87946             8.04529
934.53521   907.11268   142.00000  18.34697             9.99208
930.56604   1044.38679  106.00000  12.88017             10.66894
934.18023   1144.75581  172.00000  17.57818             12.74978
933.37681   921.39855   138.00000  15.35885             11.54146
937.24000   656.69600   125.00000  14.59670             11.18105
941.93678   984.25862   174.00000  16.97979             13.09299
946.37333   717.11000   300.00000  31.25264             14.63497
945.81214   786.15318   346.00000  23.67543             18.87752
943.66667   1238.09283  237.00000  18.84018             16.27795
945.13397   686.37321   209.00000  20.04462             13.40370
942.55396   1101.78417  139.00000  14.56990             12.23121
943.11504   1137.70796  113.00000  14.28920             10.20037
945.56250   1089.07386  176.00000  17.39652             13.04651
947.30151   536.61307   199.00000  21.75161             11.89072
950.27638   741.11055   199.00000  26.89783             10.02879
944.51837   832.04898   245.00000  24.55969             13.31419
955.01866   753.29104   268.00000  24.02773             14.56615
949.19231   856.28462   130.00000  14.27307             11.63249
952.77193   652.28070   114.00000  13.69266             10.70975
956.65313   1183.41250  320.00000  27.50188             15.16078
953.94898   1104.94898  98.00000   12.49036             10.02800
956.28426   580.76142   197.00000  16.64353             15.20144
957.89243   675.49004   251.00000  23.50918             13.70521
961.74684   1252.07595  237.00000  26.37781             11.82452
961.26871   951.60884   294.00000  25.10984             15.50295
958.63566   973.75194   129.00000  15.35889             10.76331
960.35417   766.88889   144.00000  15.25446             12.14208
968.30357   599.18367   392.00000  25.91000             21.11785
963.30159   1036.10714  252.00000  22.15335             14.83356
963.61151   1230.07194  139.00000  15.49898             11.75973
967.53636   892.66818   220.00000  23.68642             11.98514
962.70588   1078.32680  153.00000  15.32332             12.78933
964.40107   647.03209   187.00000  17.30513             13.94474
967.25229   1203.62844  218.00000  19.23504             14.66184
964.22000   847.39000   100.00000  11.53504             11.19530
968.76667   1145.98667  300.00000  22.55312             18.31947
